Jaz Data File
++++++++++++++++++++++++++++++++++++
Date: Thu Sep 23 11:18:43 2010
User: jaz
Dark Spectrum Present: Yes
Reference Spectrum Present: Yes
Processed Spectrum Present: Yes
Spectrometers: JAZA1106
Integration Time (usec): 35000 (JAZA1106)
Spectra Averaged: 1 (JAZA1106)
Boxcar Smoothing: 0 (JAZA1106)
Correct for Electrical Dark: No (JAZA1106)
Strobe/Lamp Enabled: Yes (JAZA1106)
Correct for Detector Non-linearity: No (JAZA1106)
Correct for Stray Light: No (JAZA1106)
Number of Pixels in Processed Spectrum: 2048
>>>>>Begin Processed Spectral Data<<<<<
W	D	R	S	P
191.172699	0.000000	0.000000	0.000000	0.000000
191.549164	0.000000	0.000000	0.000000	0.000000
191.925598	741.520569	678.026489	698.435303	67.857140
192.302017	734.717651	716.576477	761.929382	-149.999832
192.678406	736.985291	755.126465	732.450012	-24.999916
193.054779	752.858826	734.717651	739.252930	75.000084
193.431107	721.111755	746.055847	795.944092	300.000244
193.807434	759.661743	732.450012	732.450012	100.000000
194.183731	784.605896	736.985291	832.226440	-99.999870
194.560013	807.282349	780.070557	784.605896	83.333183
194.936249	768.732361	739.252930	734.717651	115.384552
195.312485	768.732361	800.479431	727.914673	-128.571518
195.688690	798.211731	743.788208	807.282349	-16.666723
196.064880	750.591187	752.858826	761.929382	500.000000
196.441040	800.479431	759.661743	784.605896	38.888863
196.817154	773.267639	759.661743	725.647034	349.999786
197.193268	761.929382	725.647034	761.929382	-0.000000
197.569351	755.126465	759.661743	848.099976	2050.006836
197.945419	741.520569	668.955872	798.211731	-78.124992
198.321442	741.520569	755.126465	771.000000	216.666595
198.697479	730.182373	773.267639	748.323547	42.105286
199.073441	716.576477	836.761780	741.520569	20.754694
199.449417	789.141174	741.520569	732.450012	119.047546
199.825363	775.535278	750.591187	834.494080	-236.363785
200.201294	755.126465	771.000000	741.520569	-85.714340
200.577164	741.520569	732.450012	764.197021	-250.000671
200.953049	723.379395	893.452942	746.055847	13.333322
201.328903	782.338196	809.549988	736.985291	-166.666367
201.704712	743.788208	814.085266	782.338196	54.838692
202.080536	730.182373	839.029419	736.985291	6.249979
202.456299	820.888245	825.423523	761.929382	-1300.005371
202.832062	700.702942	777.802917	746.055847	58.823502
203.207779	793.676453	795.944092	771.000000	-1000.002686
203.583496	811.817627	852.635254	782.338196	-72.222305
203.959167	712.041138	820.888245	800.479431	81.250015
204.334824	771.000000	818.620605	764.197021	-14.285788
204.710449	759.661743	832.226440	771.000000	15.625031
205.086060	768.732361	843.564697	784.605896	21.212133
205.461639	705.238220	800.479431	727.914673	23.809496
205.837219	759.661743	798.211731	782.338196	58.823502
206.212738	741.520569	818.620605	793.676453	67.647026
206.588257	748.323547	850.367615	791.408813	42.222214
206.963745	761.929382	795.944092	832.226440	206.666641
207.339218	746.055847	800.479431	727.914673	-33.333298
207.714661	798.211731	870.776489	789.141174	-12.499948
208.090073	750.591187	784.605896	725.647034	-73.333427
208.465469	780.070557	859.438232	768.732361	-14.285660
208.840836	784.605896	827.691162	741.520569	-100.000145
209.216187	730.182373	868.508789	795.944092	47.540970
209.591492	730.182373	809.549988	746.055847	19.999939
209.966797	727.914673	893.452942	709.773499	-10.958900
210.342072	739.252930	829.958801	759.661743	22.499992
210.717316	700.702942	784.605896	775.535278	89.189156
211.092529	786.873535	836.761780	766.464722	-40.909061
211.467728	746.055847	786.873535	759.661743	33.333332
211.842911	727.914673	816.352905	748.323547	23.076981
212.218063	687.097046	816.352905	752.858826	50.877213
212.593185	721.111755	852.635254	755.126465	25.862078
212.968292	755.126465	818.620605	773.267639	28.571415
213.343384	698.435303	829.958801	752.858826	41.379314
213.718414	741.520569	809.549988	736.985291	-6.666643
214.093460	743.788208	848.099976	723.379395	-19.565207
214.468460	791.408813	859.438232	746.055847	-66.666695
214.843445	727.914673	836.761780	707.505859	-18.749983
215.218384	730.182373	839.029419	795.944092	60.416630
215.593338	734.717651	877.579407	775.535278	28.571417
215.968231	759.661743	857.170593	709.773499	-51.162785
216.343109	723.379395	877.579407	705.238220	-11.764704
216.717972	691.632324	807.282349	700.702942	7.843161
217.092804	741.520569	873.044128	743.788208	1.724132
217.467636	732.450012	897.988220	732.450012	0.000000
217.842407	746.055847	925.200012	834.494080	49.367073
218.217163	698.435303	907.058838	782.338196	40.217365
218.591904	739.252930	900.255859	798.211731	36.619705
218.966614	768.732361	934.270569	773.267639	2.739717
219.341293	780.070557	968.285278	757.394104	-12.048182
219.715973	752.858826	818.620605	768.732361	24.137934
220.090591	771.000000	959.214722	734.717651	-19.277105
220.465225	730.182373	891.185303	725.647034	-2.816930
220.839798	782.338196	932.002930	807.282349	16.666687
221.214371	727.914673	966.017639	743.788208	6.666668
221.588898	746.055847	916.129395	757.394104	6.666678
221.963409	736.985291	950.144104	809.549988	34.042549
222.337906	702.970581	961.482361	789.141174	33.333332
222.712372	759.661743	977.355896	789.141174	13.541674
223.086823	752.858826	1045.385254	809.549988	19.379843
223.461227	734.717651	1002.299988	768.732361	12.711866
223.835617	759.661743	1068.061768	823.155884	20.588242
224.209991	782.338196	1097.541138	721.111755	-19.424450
224.584335	725.647034	1068.061768	761.929382	10.596025
224.958633	716.576477	1093.005859	798.211731	21.686737
225.332947	809.549988	1108.879395	748.323547	-20.454536
225.707199	786.873535	1222.261719	764.197021	-5.208344
226.081451	730.182373	1183.711792	775.535278	9.999992
226.455658	739.252930	1183.711792	811.817627	16.326527
226.829865	734.717651	1301.629395	782.338196	8.399993
227.204041	771.000000	1349.250000	752.858826	-3.137254
227.578171	752.858826	1449.026489	823.155884	10.097719
227.952271	777.802917	1471.702881	827.691162	7.189544
228.326385	736.985291	1605.494141	818.620605	9.399480
228.700455	702.970581	1775.567627	859.438232	14.587738
229.074478	709.773499	1950.176392	805.014709	7.678248
229.448502	759.661743	2278.985352	927.467651	11.044777
229.822495	773.267639	2669.020508	870.776489	5.143542
230.196472	761.929382	3031.843994	909.326477	6.493508
230.570404	766.464722	3313.032227	990.961731	8.815671
230.944321	723.379395	3396.935303	875.311768	5.682783
231.318207	789.141174	3430.949951	895.720581	4.034335
231.692078	750.591187	3444.555908	918.397034	6.228955
232.065918	755.126465	3131.620605	891.185303	5.725192
232.439758	739.252930	2777.867676	882.114685	7.007786
232.813538	716.576477	2653.146973	902.523499	9.601871
233.187302	716.576477	2474.002930	814.085266	5.548385
233.561035	705.238220	2360.620605	848.099976	8.630136
233.934753	684.829407	2303.929443	850.367615	10.224088
234.308456	750.591187	2174.673584	861.705872	7.802546
234.682114	691.632324	2183.744141	861.705872	11.398177
235.055740	757.394104	2170.138184	854.902954	6.902089
235.429367	757.394104	2310.732422	863.973511	6.861313
235.802979	732.450012	2365.155762	848.099976	7.083332
236.176529	736.985291	2424.114746	843.564697	6.317204
236.550064	741.520569	2435.452881	834.494080	5.488620
236.923584	775.535278	2487.608887	886.649963	6.490065
237.297073	791.408813	2444.523438	888.917664	5.898493
237.670532	748.323547	2351.550049	900.255859	9.476659
238.043976	736.985291	2562.441162	807.282349	3.850932
238.417389	712.041138	2528.426514	882.114685	9.363297
238.790771	755.126465	2471.735352	868.508789	6.605018
239.164124	736.985291	2421.846924	800.479431	3.768508
239.537476	766.464722	2526.158691	886.649963	6.829895
239.910797	816.352905	2467.199951	907.058838	5.494509
240.284073	752.858826	2535.229492	875.311768	6.870229
240.657333	723.379395	2637.273438	836.761780	5.924172
241.030563	743.788208	2734.782227	848.099976	5.239181
241.403778	691.632324	2843.629395	909.326477	10.115913
241.776962	750.591187	3170.170654	861.705872	4.592314
242.150116	702.970581	3505.782227	918.397034	7.686084
242.523239	766.464722	3823.252930	904.791138	4.525221
242.896347	739.252930	4292.655762	945.608826	5.807276
243.269424	734.717651	4768.861816	963.750000	5.677347
243.642502	782.338196	5206.517578	1022.708801	5.433112
244.015533	739.252930	5510.382324	984.158813	5.133080
244.388535	707.505859	5755.288086	1108.879395	7.951483
244.761490	716.576477	5689.526367	1102.076416	7.751937
245.134445	723.379395	5342.576172	979.623535	5.547374
245.507401	761.929382	5152.094238	977.355896	4.907025
245.880280	732.450012	4705.367676	947.876465	5.422374
246.253174	721.111755	4508.082520	938.805847	5.748502
246.626022	786.873535	4560.238281	988.694092	5.348557
246.998840	716.576477	5086.332520	984.158813	6.123507
247.371628	739.252930	5845.994141	1027.244141	5.639432
247.744415	705.238220	6660.079102	1079.400024	6.283322
248.117157	820.888245	7816.579102	1131.555908	4.440843
248.489883	725.647034	8569.438477	1204.120605	6.100029
248.862579	752.858826	9258.802734	1224.529419	5.545188
249.235245	682.561768	8932.261719	1267.614746	7.091809
249.607895	780.070557	8730.441406	1170.105835	4.905875
249.980515	736.985291	7991.187988	1174.641113	6.033135
250.353088	759.661743	7086.396973	1015.905884	4.050179
250.725662	818.620605	6147.591309	1129.288208	5.829786
251.098221	748.323547	5616.961914	1054.455811	6.287842
251.470718	687.097046	5136.220703	1065.794067	8.511722
251.843216	716.576477	4712.170410	986.426453	6.753689
252.215668	757.394104	4655.479492	1024.976440	6.864455
252.588120	716.576477	4762.058594	988.694092	6.726457
252.960510	741.520569	4959.344238	970.552917	5.430107
253.332901	707.505859	5274.546875	979.623535	5.958293
253.705246	777.802917	5455.958984	1034.046997	5.477459
254.077606	721.111755	5492.241211	1052.188232	6.939164
254.449905	768.732361	5304.026367	1006.835266	5.250000
254.822189	743.788208	4950.273438	1063.526489	7.601079
255.194443	723.379395	4739.382324	975.088196	6.267645
255.566666	757.394104	4170.203125	959.214722	5.913622
255.938858	766.464722	4183.808594	945.608826	5.242203
256.311035	727.914673	3959.311768	954.679382	7.017544
256.683197	714.308838	4097.638184	922.932312	6.166218
257.055298	725.647034	4177.005859	913.861755	5.453351
257.427399	734.717651	4331.206055	927.467651	5.359395
257.799500	752.858826	4573.844238	941.073486	4.925815
258.171509	757.394104	4630.535156	984.158813	5.854801
258.543549	712.041138	4882.244141	993.229370	6.742795
258.915558	709.773499	5440.085449	936.538208	4.793864
259.287537	732.450012	6097.702637	1000.032349	4.987320
259.659454	791.408813	6585.247070	1000.032349	3.600783
260.031342	741.520569	7378.923340	1117.949951	5.671336
260.403229	746.055847	8437.915039	1224.529419	6.220519
260.775116	748.323547	9884.673828	1251.741211	5.510052
261.146942	734.717651	10891.508789	1301.629395	5.581603
261.518738	675.758789	11619.423828	1299.361694	5.698300
261.890533	766.464722	11567.267578	1390.067627	5.773672
262.262299	671.223511	11104.667969	1319.770630	6.216041
262.634003	739.252930	9818.912109	1276.685303	5.919081
263.005707	791.408813	8617.058594	1188.247070	5.070994
263.377411	714.308838	7535.391113	1156.500000	6.482713
263.749054	716.576477	7165.764648	1054.455811	5.239099
264.120667	750.591187	6739.446777	1124.752930	6.247633
264.492279	750.591187	6501.344238	1086.202881	5.835961
264.863831	757.394104	6297.255859	1068.061768	5.607860
265.235382	761.929382	6387.961914	1020.441162	4.594922
265.606873	721.111755	6034.208984	1043.117676	6.060606
265.978363	718.844116	6081.829102	1090.738281	6.934463
266.349854	759.661743	6056.885254	1029.511719	5.094178
266.721252	768.732361	6247.367676	997.764709	4.180463
267.092682	707.505859	6694.094238	1068.061768	6.022727
267.464081	716.576477	6807.476563	1068.061768	5.770663
267.835449	709.773499	7093.199707	1099.808838	6.110125
268.206757	664.420593	7474.164551	1040.849976	5.527805
268.578033	768.732361	7655.576172	1093.005859	4.708594
268.949341	771.000000	7945.834961	1138.358765	5.120100
269.320587	773.267639	7905.017578	1090.738281	4.451511
269.691803	786.873535	7882.341309	1140.626465	4.985618
270.063049	755.126465	7859.664551	1161.035278	5.713374
270.434204	795.944092	7809.776367	1163.302979	5.237635
270.805328	764.197021	7796.170410	1043.117676	3.966463
271.176422	816.352905	8254.235352	1136.091187	4.298781
271.547516	786.873535	8154.458496	1065.794067	3.785780
271.918610	798.211731	9106.870117	1136.091187	4.066595
272.289612	773.267639	9741.811523	1192.782349	4.677623
272.660645	736.985291	10276.976563	1210.923462	4.967910
273.031616	798.211731	10884.706055	1310.699951	5.080935
273.402588	748.323547	11023.032227	1165.570557	4.060913
273.773499	709.773499	10916.453125	1319.770630	5.976450
274.144379	671.223511	10544.558594	1192.782349	5.282499
274.515289	773.267639	10179.467773	1165.570557	4.170684
274.886139	736.985291	9805.305664	1192.782349	5.026257
275.256927	716.576477	9419.805664	1204.120605	5.601876
275.627747	741.520569	9149.956055	1170.105835	5.097087
275.998535	698.435303	9034.305664	1149.697021	5.413493
276.369232	784.605896	9009.361328	1142.894043	4.356216
276.739929	655.349976	9236.125977	1120.217651	5.417548
277.110626	775.535278	9247.464844	1136.091187	4.255889
277.481293	730.182373	9261.070313	1122.485229	4.598617
277.851929	752.858826	9539.991211	1190.514648	4.980644
278.222534	734.717651	9664.711914	1149.697021	4.647028
278.593140	730.182373	9594.415039	1235.867676	5.704784
278.963654	739.252930	9739.543945	1208.655884	5.215420
279.334198	732.450012	9551.329102	1278.952881	6.196965
279.704681	748.323547	9678.317383	1161.035278	4.621635
280.075165	752.858826	9437.947266	1138.358765	4.438641
280.445587	775.535278	9415.270508	1138.358765	4.199474
280.815979	730.182373	9594.415039	1190.514648	5.193143
281.186401	755.126465	9886.941406	1210.923462	4.991308
281.556763	748.323547	10326.864258	1217.726440	4.900568
281.927063	798.211731	10558.165039	1206.388184	4.182156
282.297394	725.647034	10784.929688	1195.049927	4.666366
282.667664	736.985291	11338.235352	1331.108765	5.604278
283.037933	725.647034	12084.291016	1233.599976	4.471951
283.408142	780.070557	12392.691406	1319.770630	4.647530
283.778320	798.211731	12578.637695	1290.291138	4.177094
284.148529	741.520569	12247.561523	1297.094116	4.828538
284.518646	771.000000	12172.729492	1254.008789	4.236277
284.888763	771.000000	12247.561523	1326.573486	4.840940
285.258820	759.661743	12018.529297	1335.644043	5.115810
285.628906	707.505859	12091.093750	1281.220581	5.039841
285.998932	773.267639	12413.099609	1290.291138	4.441847
286.368927	764.197021	12796.332031	1403.673462	5.314738
286.738922	741.520569	13326.961914	1385.532349	5.117117
287.108887	798.211731	13596.811523	1331.108765	4.163713
287.478790	764.197021	13714.729492	1424.082275	5.095429
287.848663	773.267639	14097.961914	1394.602905	4.663036
288.218506	741.520569	13528.782227	1424.082275	5.337825
288.588379	771.000000	13345.102539	1358.320557	4.670875
288.958191	761.929382	12703.358398	1383.264648	5.203190
289.327972	736.985291	12569.567383	1301.629395	4.771943
289.697754	746.055847	12193.137695	1288.023560	4.734549
290.067474	668.955872	12131.911133	1331.108765	5.776459
290.437164	764.197021	12476.593750	1301.629395	4.588577
290.806824	777.802917	12494.735352	1367.391113	5.031933
291.176514	752.858826	13063.914063	1424.082275	5.452200
291.546112	671.223511	13834.914063	1374.194092	5.340224
291.915710	644.011780	14234.020508	1462.632324	6.023694
292.285248	748.323547	14014.058594	1467.167603	5.418803
292.654785	746.055847	14188.666992	1399.138184	4.858300
293.024292	784.605896	13748.744141	1349.250000	4.355431
293.393768	773.267639	13107.000000	1408.208862	5.148005
293.763214	780.070557	13029.899414	1405.941162	5.109219
294.132660	730.182373	13059.378906	1412.744141	5.536141
294.502045	743.788208	13456.217773	1365.123535	4.887620
294.871460	784.605896	13370.046875	1473.970581	5.477477
295.240753	727.914673	13914.282227	1396.870605	5.073087
295.610077	784.605896	14524.279297	1489.844116	5.132860
295.979340	739.252930	15288.476563	1483.041138	5.112219
296.348602	766.464722	15388.252930	1564.676392	5.459056
296.717834	761.929382	15671.708984	1569.211792	5.414449
297.087036	764.197021	15977.840820	1612.296997	5.574601
297.456207	727.914673	16553.824219	1544.267578	5.158332
297.825348	741.520569	16932.519531	1619.099976	5.420168
298.194489	730.182373	17243.187500	1600.958862	5.273277
298.563568	716.576477	17594.673828	1542.000000	4.890501
298.932617	793.676453	17284.005859	1551.070557	4.592959
299.301636	700.702942	16980.140625	1598.691162	5.516089
299.670685	825.423523	16195.535156	1571.479370	4.853939
300.039612	782.338196	15410.929688	1542.000000	5.192993
300.408600	782.338196	14741.973633	1430.885254	4.645874
300.777496	712.041138	14249.893555	1548.802979	6.180905
301.146423	800.479431	13735.137695	1394.602905	4.593267
301.515259	723.379395	13565.064453	1451.294067	5.668373
301.884064	736.985291	13345.102539	1467.167603	5.791367
302.252899	714.308838	13467.555664	1528.394043	6.383357
302.621704	750.591187	13168.226563	1351.517578	4.839298
302.990417	730.182373	13004.956055	1451.294067	5.874745
303.359161	764.197021	12887.038086	1442.223511	5.592967
303.727844	814.085266	12726.035156	1453.561768	5.368361
304.096527	761.929382	12444.846680	1328.841187	4.852485
304.465149	675.758789	12254.364258	1444.491211	6.639249
304.833771	766.464722	11959.570313	1410.476440	5.753646
305.202362	750.591187	11775.890625	1428.617676	6.149733
305.570923	757.394104	11821.244141	1383.264648	5.656897
305.939484	820.888245	11621.691406	1322.038208	4.639933
306.307953	759.661743	11465.223633	1358.320557	5.592036
306.676392	764.197021	11528.717773	1444.491211	6.319782
307.044830	736.985291	11451.617188	1374.194092	5.947090
307.413269	768.732361	11485.631836	1378.729370	5.691917
307.781647	741.520569	11494.703125	1437.688232	6.474061
308.149994	773.267639	11379.052734	1453.561768	6.414368
308.518311	750.591187	11766.820313	1390.067627	5.804858
308.886658	736.985291	11896.076172	1399.138184	5.933753
309.254913	771.000000	12070.685547	1530.661743	6.722857
309.623138	741.520569	12397.226563	1514.788208	6.634241
309.991333	755.126465	12796.332031	1478.505859	6.007533
310.359497	845.832336	13116.070313	1555.605835	5.784513
310.727692	766.464722	13279.340820	1546.535278	6.234143
311.095795	777.802917	13363.244141	1548.802979	6.126126
311.463928	841.297058	13354.173828	1573.747070	5.853570
311.832001	718.844116	13501.570313	1569.211792	6.652475
312.200043	752.858826	13354.173828	1544.267578	6.280366
312.568054	723.379395	13553.726563	1553.338257	6.468717
312.936035	734.717651	13109.267578	1580.549927	6.835257
313.304016	811.817627	12887.038086	1591.888184	6.460093
313.671906	723.379395	12415.367188	1453.561768	6.245152
314.039825	757.394104	12360.944336	1569.211792	6.996287
314.407715	732.450012	11993.584961	1507.985229	6.886830
314.775543	782.338196	11909.682617	1573.747070	7.112288
315.143341	714.308838	12102.432617	1535.197021	7.208283
315.511139	746.055847	12286.111328	1573.747070	7.172333
315.878876	718.844116	12585.441406	1625.902954	7.643799
316.246613	773.267639	12453.916992	1507.985229	6.290040
316.614319	721.111755	12052.543945	1528.394043	7.124274
316.981995	678.026489	11991.317383	1621.367676	8.338345
317.349640	752.858826	11574.070313	1569.211792	7.544007
317.717255	750.591187	11320.093750	1507.985229	7.165843
318.084808	795.944092	10664.744141	1483.041138	6.962316
318.452332	780.070557	10673.814453	1537.464722	7.655283
318.819916	716.576477	10660.208984	1492.111694	7.799314
319.187378	718.844116	10526.417969	1421.814697	7.167630
319.554871	768.732361	10698.758789	1460.364746	6.965061
319.922302	802.747070	10905.114258	1485.308838	6.756454
320.289703	777.802917	10995.820313	1453.561768	6.613405
320.657104	743.788208	11011.694336	1449.026489	6.868375
321.024445	766.464722	10884.706055	1619.099976	8.426714
321.391724	784.605896	10825.747070	1553.338257	7.655826
321.759064	750.591187	10648.870117	1483.041138	7.399770
322.126312	714.308838	10621.658203	1517.055908	8.102541
322.493561	718.844116	10261.102539	1503.449951	8.222433
322.860779	743.788208	10102.367188	1519.323486	8.286891
323.227936	739.252930	10537.755859	1467.167603	7.428835
323.595093	712.041138	10694.223633	1496.647095	7.860064
323.962189	687.097046	10973.143555	1494.379395	7.848325
324.329315	734.717651	11524.182617	1544.267578	7.503152
324.696350	734.717651	11914.217773	1650.847046	8.194726
325.063416	752.858826	12594.511719	1689.397095	7.908847
325.430420	714.308838	12889.305664	1800.511719	8.921586
325.797363	716.576477	13429.005859	1775.567627	8.330360
326.164307	807.282349	12939.194336	1780.102905	8.018691
326.531219	739.252930	12585.441406	1653.114624	7.714395
326.898071	693.899963	12576.370117	1641.776489	7.977100
327.264954	782.338196	12159.123047	1755.158813	8.550927
327.631805	748.323547	12408.564453	1755.158813	8.634772
327.998596	786.873535	12258.899414	1668.988159	7.689267
328.365387	746.055847	11873.399414	1668.988159	8.294273
328.732117	709.773499	11603.549805	1662.185303	8.742715
329.098816	757.394104	11456.152344	1705.270508	8.859687
329.465485	780.070557	11252.064453	1662.185303	8.423560
329.832153	716.576477	11349.573242	1600.958862	8.317339
330.198761	743.788208	11057.046875	1664.452881	8.927001
330.565369	741.520569	11023.032227	1560.141113	7.962064
330.931946	802.747070	11038.905273	1623.635254	8.019495
331.298462	777.802917	10995.820313	1591.888184	7.967155
331.664948	757.394104	11020.764648	1564.676392	7.865665
332.031433	736.985291	11258.867188	1578.282349	7.995690
332.397858	752.858826	11061.582031	1646.311768	8.666960
332.764313	780.070557	11138.682617	1594.155884	7.859019
333.130676	730.182373	11211.247070	1650.847046	8.784076
333.497070	718.844116	11374.517578	1625.902954	8.512449
333.863373	709.773499	11934.625977	1650.847046	8.383839
334.229645	752.858826	11966.373047	1623.635254	7.765419
334.595917	730.182373	11975.444336	1605.494141	7.783827
334.962158	730.182373	11914.217773	1696.199951	8.637469
335.328400	761.929382	12023.064453	1644.044067	7.833266
335.694580	771.000000	11930.090820	1680.326416	8.148750
336.060730	725.647034	11614.887695	1678.058838	8.746357
336.426849	736.985291	11208.979492	1687.129395	9.073192
336.792938	721.111755	11174.964844	1714.341187	9.501084
337.158997	716.576477	10909.649414	1621.367676	8.876530
337.524994	723.379395	10798.535156	1585.085327	8.552780
337.890991	743.788208	10635.264648	1582.817627	8.482347
338.256989	784.605896	10558.165039	1596.423462	8.306263
338.622925	789.141174	10628.461914	1598.691162	8.227702
338.988861	743.788208	11168.161133	1612.296997	8.331521
339.354767	748.323547	11202.176758	1714.341187	9.240780
339.720612	802.747070	11435.744141	1689.397095	8.338665
340.086395	766.464722	11419.870117	1589.620605	7.726693
340.452179	684.829407	11304.220703	1693.932373	9.502456
340.817963	777.802917	11474.293945	1684.861694	8.479965
341.183716	743.788208	11558.197266	1687.129395	8.723002
341.549438	750.591187	11254.332031	1641.776489	8.484456
341.915100	768.732361	11261.134766	1621.367676	8.126216
342.280731	736.985291	11642.099609	1693.932373	8.775214
342.646332	732.450012	11794.032227	1693.932373	8.692087
343.011902	823.155884	12075.220703	1639.508789	7.255139
343.377441	746.055847	12000.387695	1757.426392	8.986500
343.743011	752.858826	12358.676758	1773.299927	8.792496
344.108490	748.323547	12639.864258	1727.947021	8.237986
344.473999	721.111755	12950.532227	1773.299927	8.603745
344.839417	752.858826	12932.390625	1752.891113	8.210761
345.204834	730.182373	13136.479492	1859.470581	9.102541
345.570160	771.000000	12945.997070	1755.158813	8.083442
345.935486	771.000000	13546.923828	1841.329346	8.377707
346.300842	766.464722	13608.149414	1743.820557	7.610807
346.666138	809.549988	13419.935547	1777.835327	7.678475
347.031403	743.788208	13460.752930	1775.567627	8.113409
347.396606	773.267639	13415.399414	1832.258789	8.376682
347.761810	727.914673	12887.038086	1727.947021	8.224544
348.126953	743.788208	12682.950195	1712.073486	8.110161
348.492096	741.520569	12313.323242	1752.891113	8.739957
348.857178	777.802917	12317.858398	1755.158813	8.469248
349.222260	741.520569	11936.893555	1684.861694	8.426169
349.587341	734.717651	11889.273438	1773.299927	9.310835
349.952332	764.197021	11528.717773	1782.370605	9.458606
350.317322	736.985291	12120.573242	1718.876465	8.625498
350.682251	755.126465	12156.855469	1775.567627	8.949882
351.047180	752.858826	12100.164063	1752.891113	8.812949
351.412079	818.620605	12283.843750	1741.552979	8.049843
351.776947	775.535278	12447.114258	1716.608765	8.062949
352.141754	791.408813	12322.393555	1718.876465	8.043265
352.506592	739.252930	12467.523438	1757.426392	8.681360
352.871338	768.732361	12288.378906	1703.002930	8.110236
353.236084	716.576477	12653.470703	1696.199951	8.206686
353.600800	712.041138	12506.073242	1693.932373	8.325323
353.965454	721.111755	12834.881836	1691.664673	8.011980
354.330109	784.605896	13372.314453	1771.032349	7.836426
354.694763	743.788208	13778.223633	1777.835327	7.933195
355.059326	727.914673	13855.323242	1854.935303	8.585249
355.423889	727.914673	14170.526367	1875.344116	8.535763
355.788422	766.464722	14136.511719	1884.414673	8.361601
356.152893	746.055847	14649.000000	1945.641113	8.628282
356.517365	752.858826	14898.441406	1873.076416	7.919204
356.881805	723.379395	14862.158203	1913.894043	8.420208
357.246216	725.647034	15510.706055	2029.544067	8.819018
357.610596	755.126465	15757.878906	1959.247070	8.025998
357.974945	777.802917	16383.750000	2038.614624	8.079046
358.339233	780.070557	17215.976563	2086.235352	7.947020
358.703522	791.408813	17669.505859	2140.658691	7.994087
359.067780	761.929382	17973.371094	2140.658691	8.010539
359.431976	716.576477	17606.011719	2179.208740	8.660043
359.796173	750.591187	17658.167969	2047.685303	7.671674
360.160339	791.408813	17329.359375	2070.361816	7.733443
360.524506	766.464722	17440.472656	2052.220459	7.711138
360.888580	766.464722	17399.656250	2117.982422	8.125426
361.252655	766.464722	18170.656250	2151.997070	7.960912
361.616669	743.788208	18841.878906	2229.096924	8.206991
361.980682	741.520569	20093.621094	2217.758789	7.628311
362.344666	702.970581	21445.138672	2374.226318	8.057285
362.708618	782.338196	22370.337891	2367.423584	7.342438
363.072540	718.844116	22803.458984	2560.173584	8.337612
363.436432	739.252930	22159.447266	2435.452881	7.918695
363.800262	759.661743	21860.117188	2322.070557	7.404622
364.164093	748.323547	20093.621094	2238.167725	7.701325
364.527863	718.844116	18746.638672	2145.194092	7.911949
364.891632	743.788208	17481.291016	2090.770508	8.047690
365.255371	757.394104	16639.994141	2056.755859	8.181040
365.619049	786.873535	15762.414063	1995.529419	8.070867
365.982758	766.464722	15256.729492	1988.726440	8.435055
366.346375	757.394104	15311.152344	1938.838257	8.117794
366.709961	752.858826	14658.070313	1877.611694	8.088715
367.073547	795.944092	14553.758789	1922.964722	8.191858
367.437073	775.535278	14229.485352	1927.500000	8.562279
367.800568	757.394104	14628.590820	1850.400024	7.879680
368.164093	734.717651	14603.646484	1864.005859	8.142577
368.527527	820.888245	14483.461914	1927.500000	8.099586
368.890961	712.041138	14349.669922	1759.694092	7.682076
369.254364	811.817627	14154.652344	1875.344116	7.970768
369.617706	789.141174	13959.634766	1764.229370	7.403582
369.980988	696.167664	13796.364258	1789.173462	8.343431
370.344299	782.338196	13696.587891	1730.214722	7.339772
370.707581	700.702942	13775.956055	1780.102905	8.255289
371.070801	777.802917	13762.349609	1666.720581	6.845966
371.434021	786.873535	13549.191406	1764.229370	7.658137
371.797180	723.379395	13705.658203	1839.061768	8.593886
372.160339	768.732361	13927.887695	1678.058838	6.910219
372.523438	748.323547	14181.864258	1716.608765	7.207967
372.886475	718.844116	14020.861328	1802.779419	8.148653
373.249542	775.535278	14358.741211	1845.864624	7.879799
373.612549	784.605896	14281.640625	1748.355835	7.140457
373.975525	702.970581	14032.200195	1741.552979	7.791766
374.338501	755.126465	14025.396484	1668.988159	6.886535
374.701416	750.591187	14075.285156	1795.976440	7.845473
375.064301	653.082336	14286.176758	1771.032349	8.200266
375.427155	843.564697	14107.032227	1755.158813	6.872970
375.789978	795.944092	14395.023438	1807.314697	7.437052
376.152771	766.464722	14782.791016	1759.694092	7.086232
376.515533	768.732361	14775.988281	1834.526489	7.608872
376.878296	775.535278	15322.491211	1832.258789	7.264224
377.240997	691.632324	16048.137695	1888.949951	7.796810
377.603638	752.858826	16345.200195	1841.329346	6.980802
377.966278	786.873535	16891.703125	1945.641113	7.195156
378.328857	752.858826	17565.193359	2031.811768	7.607230
378.691437	782.338196	17424.599609	1995.529419	7.289822
379.054016	750.591187	17336.162109	2022.741089	7.670221
379.416504	768.732361	17193.298828	1959.247070	7.248378
379.779022	805.014709	16386.017578	1929.767578	7.218745
380.141449	691.632324	15846.317383	1952.444092	8.319617
380.503845	727.914673	15279.405273	1961.514648	8.477482
380.866211	734.717651	14943.793945	1825.455811	7.676348
381.228577	727.914673	14798.664063	1857.202881	8.025786
381.590912	771.000000	14844.017578	1693.932373	6.558170
381.953186	773.267639	14728.367188	1829.991211	7.572312
382.315460	784.605896	14977.808594	1712.073486	6.534590
382.677704	784.605896	14834.947266	1784.638184	7.117495
383.039886	727.914673	15002.752930	1748.355835	7.148530
383.402039	775.535278	14880.299805	1868.541138	7.749196
383.764160	771.000000	14766.916992	1829.991211	7.566430
384.126251	734.717651	15184.164063	1854.935303	7.752668
384.488342	752.858826	15385.985352	1852.667603	7.515884
384.850372	773.267639	15719.329102	1766.497070	6.645426
385.212402	789.141174	15755.611328	1868.541138	7.212121
385.574341	743.788208	16041.334961	1836.794067	7.144975
385.936310	739.252930	15660.370117	1879.879395	7.644377
386.298187	782.338196	16079.884766	1841.329346	6.922621
386.660065	734.717651	15864.458984	1750.623535	6.714628
387.021942	795.944092	15819.105469	1832.258789	6.898113
387.383728	739.252930	15830.444336	1848.132324	7.347858
387.745544	764.197021	16494.865234	1911.626465	7.294219
388.107269	705.238220	16451.779297	1834.526489	7.171659
388.468964	761.929382	16336.128906	1920.697021	7.440303
388.830658	682.561768	16417.763672	1852.667603	7.436230
389.192322	761.929382	16508.470703	1829.991211	6.782834
389.553925	746.055847	16562.894531	1845.864624	6.953405
389.915527	741.520569	16676.275391	1834.526489	6.859257
390.277100	714.308838	16492.597656	1827.723511	7.056625
390.638611	691.632324	16177.393555	1886.682373	7.717089
391.000122	743.788208	16327.058594	1759.694092	6.519208
391.361572	795.944092	16787.390625	1922.964722	7.047647
391.722992	773.267639	17143.412109	1882.146973	6.773791
392.084381	809.549988	17785.156250	1904.823486	6.452044
392.445770	734.717651	17943.890625	1882.146973	6.667544
392.807098	725.647034	18456.378906	1984.191162	7.098095
393.168427	671.223511	19014.220703	2004.599976	7.269131
393.529694	766.464722	18565.226563	1934.302856	6.561345
393.890930	734.717651	18476.787109	1954.711792	6.876278
394.252106	755.126465	18315.785156	1916.161743	6.611570
394.613281	757.394104	18048.203125	1927.500000	6.767214
394.974426	721.111755	18102.626953	2027.276489	7.514677
395.335510	730.182373	18084.484375	1911.626465	6.807788
395.696625	693.899963	18279.501953	1959.247070	7.195359
396.057678	811.817627	18553.888672	1968.317627	6.518405
396.418671	748.323547	17812.367188	1891.217651	6.697674
396.779633	727.914673	17485.826172	1866.273560	6.792964
397.140594	757.394104	16769.250000	1820.920532	6.642118
397.501465	718.844116	16406.425781	1825.455811	7.054061
397.862396	780.070557	16234.084961	1795.976440	6.573734
398.223236	789.141174	16102.561523	1709.805908	6.012143
398.584076	807.282349	16127.505859	1730.214722	6.024275
398.944824	818.620605	16029.997070	1780.102905	6.320810
399.305603	684.829407	15742.005859	1755.158813	7.108433
399.666290	718.844116	15771.485352	1750.623535	6.854474
400.026978	725.647034	16009.587891	1755.158813	6.735905
400.387634	682.561768	15923.416992	1730.214722	6.873977
400.748260	734.717651	15884.867188	1689.397095	6.301452
401.108887	811.817627	15903.008789	1829.991211	6.746807
401.469452	723.379395	15841.782227	1582.817627	5.684716
401.829956	752.858826	15755.611328	1737.017578	6.559855
402.190430	780.070557	15859.922852	1761.961792	6.511279
402.550873	755.126465	16016.390625	1709.805908	6.255573
402.911285	784.605896	15823.640625	1696.199951	6.061520
403.271729	757.394104	15932.488281	1743.820557	6.500299
403.632080	757.394104	16127.505859	1746.088257	6.432576
403.992432	755.126465	16485.792969	1757.426392	6.371631
404.352692	748.323547	16839.546875	1761.961792	6.299324
404.712952	725.647034	17229.582031	1882.146973	7.007420
405.073181	716.576477	17592.406250	1852.667603	6.732060
405.433380	757.394104	18102.626953	1911.626465	6.654465
405.793549	734.717651	18268.164063	1902.555908	6.660631
406.153687	746.055847	18206.937500	1900.288208	6.610391
406.513824	743.788208	18020.990234	1807.314697	6.155664
406.873871	707.505859	18055.005859	1879.879395	6.758170
407.233917	682.561768	17837.310547	1918.429443	7.204231
407.593903	752.858826	17576.531250	1820.920532	6.348565
407.953888	759.661743	17050.437500	1882.146973	6.890312
408.313782	800.479431	17547.052734	1850.400024	6.269465
408.673706	718.844116	17231.849609	1773.299927	6.385608
409.033569	700.702942	16644.529297	1827.723511	7.068696
409.393433	725.647034	16739.769531	1911.626465	7.405835
409.753235	739.252930	16966.535156	1791.441162	6.484069
410.112976	773.267639	17127.537109	1852.667603	6.600111
410.472717	761.929382	17410.994141	1902.555908	6.850995
410.832428	759.661743	17801.029297	1818.652954	6.214239
411.192108	718.844116	17755.675781	1886.682373	6.854785
411.551758	798.211731	17825.972656	1864.005859	6.259156
411.911407	761.929382	18061.808594	1943.373535	6.829205
412.270966	750.591187	17869.058594	1825.455811	6.278977
412.630493	773.267639	17658.167969	1868.541138	6.486703
412.989990	725.647034	17660.435547	1848.132324	6.628281
413.349457	693.899963	17410.994141	1811.849976	6.687466
413.708893	718.844116	17458.615234	1911.626465	7.125440
414.068329	752.858826	17390.585938	1741.552979	5.942483
414.427673	730.182373	17640.025391	1866.273560	6.718520
414.787079	707.505859	17701.251953	1845.864624	6.698692
415.146332	714.308838	17431.402344	1891.217651	7.040152
415.505615	777.802917	18048.203125	1873.076416	6.341911
415.864838	784.605896	18467.716797	1907.091187	6.347782
416.224060	750.591187	18619.650391	1900.288208	6.434010
416.583252	750.591187	18828.273438	2009.135254	6.961866
416.942383	732.450012	19059.574219	2047.685303	7.176441
417.301514	777.802917	19962.097656	1961.514648	6.170212
417.660583	780.070557	20256.890625	2059.023438	6.566538
418.019623	752.858826	20501.796875	2020.473511	6.418648
418.378662	800.479431	21075.511719	2029.544067	6.061962
418.737610	752.858826	21742.199219	2133.855957	6.579516
419.096558	798.211731	22306.843750	2220.026367	6.610437
419.455475	725.647034	23325.017578	2111.179443	6.130845
419.814331	782.338196	24023.453125	2319.802979	6.615280
420.173218	809.549988	24787.650391	2326.605957	6.326839
420.532013	773.267639	26023.517578	2387.832275	6.394252
420.890808	748.323547	26998.605469	2401.438232	6.297513
421.249512	768.732361	27919.269531	2669.020508	6.999081
421.608215	775.535278	29010.007813	2528.426514	6.208337
421.966919	798.211731	29903.460938	2773.332275	6.786132
422.325562	725.647034	30273.087891	2730.247070	6.784344
422.684204	746.055847	31132.525391	2811.882324	6.798508
423.042755	723.379395	31230.035156	2773.332275	6.719690
423.401306	789.141174	30844.535156	2757.458740	6.548966
423.759796	755.126465	30318.441406	2757.458740	6.773030
424.118286	736.985291	30606.431641	2816.417725	6.961737
424.476715	680.294128	30579.220703	2750.655762	6.924535
424.835144	732.450012	31053.158203	2820.952881	6.888041
425.193512	736.985291	31059.960938	2732.514648	6.580915
425.551880	843.564697	31347.953125	2773.332275	6.326197
425.910187	748.323547	31554.308594	2811.882324	6.698565
426.268433	734.717651	30556.542969	2771.064697	6.828378
426.626678	721.111755	30218.664063	2771.064697	6.949569
426.984863	734.717651	29012.275391	2700.767578	6.952686
427.343079	746.055847	28204.994141	2614.596924	6.804855
427.701202	820.888245	27556.447266	2696.232422	7.014420
428.059326	768.732361	26778.644531	2551.103027	6.852659
428.417389	743.788208	26234.408203	2526.158691	6.992260
428.775452	714.308838	25640.285156	2464.932373	7.023290
429.133453	732.450012	24635.716797	2433.185303	7.115075
429.491394	709.773499	24175.384766	2483.073486	7.557016
429.849335	784.605896	23912.337891	2403.705811	7.000686
430.207245	700.702942	23263.791016	2317.535156	7.165829
430.565125	752.858826	22914.572266	2365.155762	7.275146
430.922974	714.308838	22973.531250	2378.761719	7.477588
431.280762	786.873535	22710.484375	2331.141113	7.043856
431.638550	800.479431	22866.953125	2349.282227	7.018805
431.996246	761.929382	22470.115234	2310.732422	7.134650
432.353943	802.747070	22603.906250	2365.155762	7.166631
432.711639	780.070557	22642.455078	2385.564697	7.343637
433.069275	761.929382	23003.011719	2394.635254	7.340946
433.426880	757.394104	22617.511719	2390.099854	7.468880
433.784454	743.788208	23327.285156	2374.226318	7.219600
434.141968	671.223511	23783.082031	2446.791260	7.682497
434.499451	707.505859	23758.138672	2498.947021	7.771766
434.856903	768.732361	23615.275391	2501.214600	7.583126
435.214355	752.858826	23914.605469	2582.849854	7.900920
435.571747	752.858826	23880.591797	2519.355957	7.638004
435.929108	748.323547	23744.531250	2383.297119	7.109754
436.286438	786.873535	23769.476563	2612.329346	7.942772
436.643738	743.788208	23554.048828	2480.805908	7.615072
437.000977	732.450012	24173.117188	2512.552979	7.594080
437.358215	766.464722	23524.570313	2551.103027	7.841770
437.715393	809.549988	23581.261719	2492.144043	7.388966
438.072571	800.479431	23787.617188	2498.947021	7.388773
438.429688	771.000000	23925.943359	2483.073486	7.393987
438.786774	752.858826	24225.273438	2578.314697	7.777026
439.143860	761.929382	24365.867188	2625.935303	7.897012
439.500854	789.141174	24898.763672	2671.288086	7.806622
439.857819	768.732361	25293.333984	2666.752930	7.739251
440.214783	757.394104	26288.832031	2678.091064	7.522871
440.571686	780.070557	26941.914063	2678.091064	7.254919
440.928589	820.888245	26975.929688	2820.952881	7.646957
441.285431	764.197021	27896.593750	2900.320557	7.872963
441.642242	752.858826	28193.656250	2811.882324	7.503512
441.999054	773.267639	28937.443359	2895.785156	7.536232
442.355774	732.450012	29118.855469	2864.038086	7.509186
442.712494	716.576477	28898.894531	2934.335205	7.869327
443.069183	734.717651	28121.089844	2757.458740	7.385940
443.425812	741.520569	27980.496094	2734.782227	7.317683
443.782410	750.591187	27558.714844	2759.726318	7.494501
444.138977	714.308838	27139.199219	2730.247070	7.628937
444.495544	771.000000	26633.513672	2766.529297	7.715914
444.852051	741.520569	26159.576172	2630.470459	7.431529
445.208496	714.308838	26715.150391	2814.149902	8.076051
445.564941	795.944092	26427.158203	2664.485352	7.290100
445.921356	764.197021	27397.710938	2759.726318	7.492550
446.277740	759.661743	27751.464844	2709.838135	7.225069
446.634033	727.914673	28454.435547	2836.826416	7.606117
446.990356	721.111755	29216.365234	2805.079346	7.313385
447.346619	802.747070	29436.326172	2888.982422	7.285975
447.702850	748.323547	29880.785156	2841.361816	7.184557
448.059021	784.605896	30313.906250	2993.294189	7.479650
448.415222	718.844116	30740.222656	2970.617676	7.500566
448.771301	743.788208	30211.861328	2945.673584	7.472105
449.127411	739.252930	29919.333984	2947.941162	7.569164
449.483459	723.379395	28699.339844	2775.599854	7.335657
449.839508	707.505859	27848.972656	2741.585205	7.494360
450.195465	727.914673	28402.279297	2730.247070	7.235332
450.551422	723.379395	27250.314453	2716.641113	7.514105
450.907318	743.788208	27363.697266	2659.949951	7.198228
451.263214	746.055847	26826.263672	2680.358887	7.416747
451.619080	780.070557	26016.714844	2605.526367	7.233354
451.974884	748.323547	27016.746094	2746.120605	7.605319
452.330688	682.561768	25833.035156	2596.455811	7.609774
452.686401	773.267639	25361.365234	2492.144043	6.990685
453.042114	705.238220	25404.449219	2639.541260	7.831436
453.397766	707.505859	25436.197266	2650.879395	7.858780
453.753448	723.379395	25454.337891	2598.723389	7.582981
454.109039	750.591187	24774.042969	2512.552979	7.334341
454.464600	755.126465	24690.140625	2623.667725	7.806727
454.820129	759.661743	24413.488281	2585.117676	7.717381
455.175629	736.985291	23726.390625	2514.820557	7.733280
455.531097	789.141174	23234.310547	2492.144043	7.587391
455.886505	743.788208	22798.923828	2528.426514	8.091714
456.241913	725.647034	22488.255859	2390.099854	7.648223
456.597290	721.111755	22429.296875	2512.552979	8.252377
456.952606	775.535278	22905.501953	2519.355957	7.879907
457.307892	730.182373	22653.792969	2496.679443	8.057509
457.663177	741.520569	22828.402344	2521.623535	8.059549
458.018372	757.394104	23014.349609	2546.567627	8.038716
458.373535	816.352905	23130.000000	2576.047119	7.886179
458.728699	766.464722	23311.412109	2639.541260	8.308187
459.083832	730.182373	24980.400391	2775.599854	8.434635
459.438904	750.591187	24957.722656	2811.882324	8.515223
459.793945	752.858826	27096.115234	2911.658691	8.194886
460.148926	809.549988	28093.878906	2961.547119	7.887301
460.503906	805.014709	29209.560547	3142.958740	8.230881
460.858856	732.450012	30182.382813	3274.482422	8.631709
461.213776	730.182373	30291.228516	3229.129395	8.453513
461.568634	712.041138	30722.082031	3301.694092	8.629288
461.923462	755.126465	29862.644531	3297.158691	8.733250
462.278259	712.041138	29363.761719	3095.338135	8.318163
462.632996	841.297058	27279.792969	3072.661621	8.439832
462.987732	739.252930	26792.250000	3063.591064	8.921577
463.342438	743.788208	25048.429688	2929.800049	8.994215
463.697083	789.141174	24506.460938	2848.164551	8.681518
464.051697	800.479431	23798.955078	2796.008789	8.676789
464.406311	716.576477	23039.292969	2746.120605	9.091833
464.760864	766.464722	22925.912109	2684.894043	8.657388
465.115356	746.055847	22798.923828	2689.429443	8.812340
465.469818	750.591187	22649.257813	2691.697021	8.864037
465.824310	764.197021	22597.103516	2830.023438	9.461986
466.178680	718.844116	22433.832031	2757.458740	9.388053
466.533051	771.000000	22998.476563	2882.179443	9.498062
466.887390	698.435303	22739.964844	2836.826416	9.701646
467.241730	759.661743	23111.859375	2845.896973	9.333468
467.595978	777.802917	23077.843750	2861.770508	9.345129
467.950195	771.000000	23304.609375	2907.123535	9.479722
468.304413	759.661743	23293.269531	2789.205811	9.006742
468.658569	798.211731	23864.716797	2868.573486	8.975619
469.012665	732.450012	23032.490234	2877.644043	9.619687
469.366791	734.717651	22751.302734	2741.585205	9.115253
469.720825	750.591187	21919.076172	2796.008789	9.662560
470.074860	775.535278	21959.894531	2725.711670	9.205737
470.428833	766.464722	21535.843750	2777.867676	9.684464
470.782776	780.070557	21361.234375	2777.867676	9.706920
471.136688	784.605896	21488.222656	2727.979492	9.386638
471.490570	702.970581	21508.632813	2780.135254	9.983650
471.844391	748.323547	21089.117188	2818.685303	10.178373
472.198212	743.788208	21002.947266	2761.994141	9.961944
472.551971	789.141174	21039.228516	2732.514648	9.596865
472.905701	766.464722	20857.816406	2678.091064	9.514672
473.259399	743.788208	21798.890625	2886.714600	10.177706
473.613098	755.126465	21894.132813	2857.235352	9.944219
473.966705	741.520569	22150.376953	2854.967529	9.871836
474.320251	771.000000	22547.214844	2909.391113	9.819848
474.673828	789.141174	22118.628906	2938.870605	10.078673
475.027374	771.000000	22431.564453	3000.096924	10.291038
475.380829	780.070557	21971.232422	2984.223389	10.401283
475.734283	784.605896	21934.949219	2963.814697	10.303420
476.087708	768.732361	22093.685547	3036.379395	10.633772
476.441071	789.141174	22193.460938	3015.970459	10.403645
476.794434	784.605896	22821.599609	3074.929443	10.393085
477.147705	757.394104	23329.552734	3122.550049	10.478201
477.501007	725.647034	22953.123047	3131.620605	10.824322
477.854218	771.000000	23671.966797	3210.988281	10.654521
478.207428	739.252930	24626.646484	3183.776367	10.233529
478.560547	757.394104	24479.250000	3283.552979	10.649078
478.913696	784.605896	25139.134766	3412.808838	10.791433
479.266785	727.914673	25250.250000	3530.726318	11.429627
479.619812	716.576477	25687.906250	3489.908691	11.106066
479.972809	716.576477	26193.589844	3517.120605	10.992435
480.325836	743.788208	26533.738281	3596.488281	11.061287
480.678772	793.676453	26864.814453	3716.673584	11.211620
481.031677	764.197021	27796.816406	3895.817627	11.584599
481.384521	766.464722	28751.496094	3986.523438	11.506361
481.737366	755.126465	30071.267578	4183.808594	11.695544
482.090179	741.520569	31236.837891	4333.473633	11.778705
482.442932	791.408813	33180.210938	4483.138184	11.398166
482.795685	795.944092	36862.871094	4823.285156	11.166300
483.148346	743.788208	40751.882813	5558.002930	12.033102
483.501007	702.970581	44810.972656	6086.364746	12.205028
483.853638	752.858826	50883.730469	6911.788086	12.285702
484.206238	689.364685	57328.382813	7846.058594	12.635625
484.558746	748.323547	61500.855469	8700.961914	13.090217
484.911224	684.829407	63698.203125	9515.046875	14.013244
485.263702	734.717651	65222.062500	9703.261719	13.907448
485.616180	725.647034	65099.609375	9857.461914	14.185572
485.968567	786.873535	63888.687500	9666.979492	14.072663
486.320923	795.944092	61312.640625	8929.994141	13.441001
486.673248	771.000000	58827.300781	8431.111328	13.194281
487.025574	766.464722	55775.046875	7963.976563	13.084343
487.377808	741.520569	54747.800781	7898.214355	13.251595
487.730011	743.788208	55484.789063	8027.470703	13.305717
488.082214	755.126465	55879.359375	8177.135254	13.464149
488.434357	689.364685	57725.222656	8381.223633	13.486005
488.786469	730.182373	58203.695313	8812.076172	14.061945
489.138519	755.126465	57920.242188	8689.623047	13.879962
489.490601	741.520569	57568.753906	8576.241211	13.786912
489.842560	712.041138	55645.789063	8181.670410	13.597524
490.194519	761.929382	54065.242188	8013.864746	13.605038
490.546448	709.773499	50570.796875	7503.644043	13.625614
490.898346	752.858826	49552.621094	7530.855957	13.889406
491.250183	814.085266	49384.816406	7415.205566	13.590736
491.602020	789.141174	50173.957031	7746.282227	14.087611
491.953766	748.323547	50797.562500	7818.847168	14.127135
492.305542	721.111755	52523.242188	7850.594238	13.762914
492.657227	795.944092	54400.851563	8270.108398	13.943060
493.008911	746.055847	54500.628906	8247.432617	13.954863
493.360565	741.520569	54121.929688	8392.561523	14.333051
493.712158	750.591187	51446.109375	7852.861816	14.009661
494.063690	723.379395	48273.671875	7392.529297	14.025465
494.415222	752.858826	44554.730469	7025.170410	14.319735
494.766724	739.252930	41411.769531	6601.120605	14.412355
495.118195	759.661743	38686.058594	6043.279297	13.931240
495.469574	725.647034	36357.183594	5750.752930	14.102974
495.820953	752.858826	34912.695313	5773.429199	14.697290
496.172302	784.605896	35130.386719	5675.920410	14.241384
496.523590	807.282349	34758.492188	5626.032227	14.193161
496.874878	755.126465	34774.367188	5671.385254	14.451406
497.226074	682.561768	35191.613281	5877.741211	15.054543
497.577271	766.464722	35930.867188	5762.091309	14.206488
497.928436	702.970581	36323.171875	6020.603027	14.928698
498.279541	736.985291	36418.410156	6059.152832	14.915792
498.630676	814.085266	36307.296875	5886.811523	14.292103
498.981689	712.041138	36690.527344	5977.517578	14.635071
499.332703	746.055847	35475.070313	6020.603027	15.187725
499.683655	814.085266	34606.562500	5986.588379	15.306670
500.034607	791.408813	34089.539063	5698.597168	14.737130
500.385498	734.717651	33395.636719	5784.767578	15.462056
500.736328	709.773499	33143.929688	5476.367676	14.696218
501.087189	789.141174	32849.136719	5632.835449	15.108219
501.437958	780.070557	31957.949219	5719.005859	15.841153
501.788727	771.000000	31688.099609	5442.353027	15.109286
502.139465	739.252930	31218.697266	5290.420410	14.931924
502.490112	748.323547	31035.017578	5317.632324	15.086852
502.840759	768.732361	30683.531250	5344.844238	15.297151
503.191345	757.394104	30685.798828	5235.997070	14.964390
503.541901	736.985291	30842.267578	5449.155762	15.652304
503.892395	802.747070	30654.052734	5347.111816	15.223337
504.242889	757.394104	30656.320313	5480.902832	15.798256
504.593323	786.873535	30688.066406	5446.888184	15.584711
504.943726	800.479431	31189.216797	5564.805664	15.677934
505.294159	743.788208	31341.150391	5537.594238	15.667384
505.644531	678.026489	31014.609375	5548.932129	16.056211
505.994781	805.014709	30998.734375	5317.632324	14.945551
506.345062	791.408813	31186.949219	5403.802734	15.174575
506.695343	775.535278	30908.029297	5467.296875	15.570439
507.045502	759.661743	30366.060547	5501.311523	16.015625
507.395691	773.267639	30982.861328	5358.449707	15.177900
507.745789	773.267639	30631.376953	5431.014648	15.599605
508.095856	791.408813	30572.417969	5571.608887	16.051168
508.445892	764.197021	30994.199219	5537.594238	15.790265
508.795868	757.394104	31096.244141	5467.296875	15.524329
509.145844	716.576477	31286.726563	5666.850098	16.193161
509.495758	800.479431	31933.005859	5635.103027	15.529171
509.845642	748.323547	32214.193359	5845.994141	16.200634
510.195496	814.085266	32311.703125	5852.796875	15.997119
510.545349	757.394104	32762.964844	5938.967773	16.189600
510.895111	782.338196	32479.507813	5909.488281	16.175419
511.244873	755.126465	33225.562500	6025.138184	16.230185
511.594574	707.505859	33425.117188	6093.167480	16.461048
511.944305	755.126465	33781.136719	6041.011719	16.005219
512.293884	746.055847	33676.824219	6079.561523	16.196117
512.643494	807.282349	34531.730469	6208.817383	16.016674
512.993042	734.717651	34311.765625	6097.702637	15.972176
513.342529	757.394104	34128.085938	6258.705566	16.485458
513.692017	734.717651	34230.132813	6102.238281	16.024643
514.041443	795.944092	33976.156250	6111.308594	16.019682
514.390869	739.252930	33336.679688	6025.138184	16.215652
514.740234	784.605896	33472.738281	5982.052734	15.900103
515.089600	750.591187	32883.148438	6036.476563	16.450249
515.438843	750.591187	32835.527344	5936.699707	16.163687
515.788147	727.914673	32438.691406	6106.773438	16.962242
516.137329	736.985291	32785.640625	6059.152832	16.606524
516.486511	721.111755	32663.187500	5832.388184	16.001703
516.835632	716.576477	32871.812500	5925.361816	16.198872
517.184753	743.788208	32939.839844	5979.785156	16.262856
517.533875	725.647034	34050.988281	6324.467773	16.800491
517.882874	723.379395	34261.878906	6424.244141	16.997972
518.231873	814.085266	35563.507813	6539.894043	16.477421
518.580811	691.632324	36953.574219	6635.135254	16.390471
518.929749	748.323547	38277.882813	6889.111816	16.362537
519.278625	732.450012	39175.871094	7131.750000	16.646021
519.627441	757.394104	39724.640625	7045.579102	16.137104
519.976196	732.450012	39828.953125	7306.358887	16.814569
520.324951	761.929382	39577.242188	7322.232422	16.901327
520.673706	698.435303	39411.707031	7120.411621	16.588566
521.022461	693.899963	38087.398438	6814.279297	16.367495
521.371094	791.408813	36679.191406	6750.785156	16.605587
521.719666	752.858826	36638.371094	6666.882324	16.480253
522.068237	866.241150	35180.277344	6294.988281	15.820777
522.416809	816.352905	34924.031250	6421.976563	16.435078
522.765320	793.676453	34255.074219	6363.017578	16.644077
523.113770	698.435303	34309.500000	6356.214844	16.833084
523.462158	718.844116	33953.480469	6453.723633	17.255732
523.810547	764.197021	34744.886719	6301.791016	16.296295
524.158936	782.338196	35241.503906	6276.847168	15.944985
524.507202	727.914673	35232.433594	6403.835449	16.449789
524.855408	743.788208	36225.660156	6537.626465	16.329010
525.203674	743.788208	37518.218750	6932.196777	16.828020
525.551819	680.294128	38967.246094	7138.552734	16.868040
525.900024	743.788208	40386.792969	7281.414551	16.491249
526.248169	746.055847	42205.445313	7778.029297	16.961111
526.596191	736.985291	44080.789063	7982.117676	16.715496
526.944275	750.591187	45627.324219	8378.956055	16.998484
527.292358	716.576477	47611.515625	8573.973633	16.755320
527.640259	782.338196	49339.464844	9115.941406	17.162474
527.988159	746.055847	52214.839844	9653.373047	17.306252
528.336060	734.717651	54954.156250	10138.649414	17.344208
528.683960	773.267639	58430.460938	10914.185547	17.588297
529.031738	712.041138	61503.121094	11755.482422	18.166222
529.379456	709.773499	63464.636719	12567.299805	18.894993
529.727173	743.788208	64834.296875	13229.453125	19.481302
530.074890	775.535278	65042.917969	13313.355469	19.508839
530.422546	723.379395	64398.906250	13082.055664	19.408831
530.770203	777.802917	62666.425781	12263.435547	18.558554
531.117737	752.858826	59924.839844	11517.378906	18.191921
531.465332	793.676453	56561.917969	10710.096680	17.781483
531.812866	750.591187	53325.988281	10038.873047	17.666594
532.160278	714.308838	50414.328125	9392.593750	17.461332
532.507813	784.605896	48650.097656	8823.415039	16.794582
532.855103	771.000000	47502.671875	8746.314453	17.066187
533.202515	777.802917	48457.347656	8891.444336	17.017029
533.549805	766.464722	49550.355469	9199.843750	17.287220
533.897034	786.873535	51180.792969	9437.947266	17.166901
534.244324	764.197021	52253.390625	9705.529297	17.365454
534.591492	746.055847	52654.765625	9705.529297	17.260057
534.938599	673.491150	52552.718750	9748.614258	17.492788
535.285706	743.788208	51160.382813	9569.470703	17.505512
535.632813	773.267639	49021.992188	9100.067383	17.258074
535.979797	766.464722	46958.433594	8660.143555	17.088856
536.326843	773.267639	45287.179688	8617.058594	17.620989
536.673889	775.535278	44105.734375	8279.179688	17.317356
537.020752	805.014709	43520.683594	8140.853027	17.173647
537.367676	743.788208	43473.062500	8172.600098	17.385767
537.714539	771.000000	43581.910156	8170.332031	17.283752
538.061340	764.197021	43026.335938	8168.064453	17.518911
538.408142	755.126465	42361.914063	7832.452637	17.010027
538.754822	734.717651	41364.148438	7639.702637	16.995033
539.101501	764.197021	39790.402344	7630.632324	17.594421
539.448181	755.126465	39364.085938	7576.208496	17.667095
539.794800	759.661743	38327.769531	7202.046875	17.148548
540.141296	723.379395	38420.742188	7329.035156	17.522860
540.487854	798.211731	39912.855469	7619.293945	17.438690
540.834351	800.479431	41577.308594	7977.582031	17.600933
541.180786	802.747070	44024.097656	8394.829102	17.565582
541.527283	784.605896	47382.484375	8943.599609	17.509367
541.873657	805.014709	50754.476563	9594.415039	17.596586
542.220032	816.352905	52532.312500	9986.717773	17.732176
542.566284	764.197021	54006.281250	10242.961914	17.803143
542.912659	800.479431	54316.949219	10342.738281	17.830509
543.258850	723.379395	54072.042969	10245.229492	17.848337
543.605042	764.197021	52248.855469	10047.944336	18.032064
543.951111	836.761780	49935.855469	9369.917969	17.379457
544.297302	727.914673	46491.300781	8891.444336	17.838562
544.643311	782.338196	44547.925781	8440.182617	17.497410
544.989380	746.055847	42230.390625	8016.132324	17.524872
545.335327	775.535278	40239.398438	7753.084961	17.680859
545.681274	802.747070	39091.968750	7408.402832	17.251997
546.027222	836.761780	37656.546875	7265.541016	17.460121
546.373047	816.352905	36345.847656	7161.229492	17.858053
546.718872	771.000000	35794.808594	6889.111816	17.468437
547.064758	843.564697	36418.410156	7041.043945	17.420961
547.410522	791.408813	36184.843750	6991.155762	17.516659
547.756165	836.761780	35561.242188	6943.535156	17.586363
548.101929	800.479431	35189.347656	6857.364746	17.612925
548.447571	850.367615	34509.050781	6805.208496	17.691841
548.793152	780.070557	33808.347656	6596.584961	17.610712
549.138733	848.099976	32227.798828	6426.511719	17.777136
549.484253	820.888245	31570.181641	6304.058594	17.831858
549.829712	857.170593	30295.763672	6045.546875	17.624403
550.175171	798.211731	28692.537109	5789.302734	17.892853
550.520569	827.691162	27536.037109	5526.255859	17.592121
550.865906	755.126465	26687.937500	5440.085449	18.065760
551.211182	773.267639	26334.185547	5338.041016	17.858410
551.556458	777.802917	26118.757813	5428.747070	18.353470
551.901794	700.702942	25644.820313	5226.926270	18.145452
552.246948	752.858826	25354.560547	5211.052734	18.121487
552.592102	741.520569	26121.025391	5272.279297	17.852039
552.937256	798.211731	26098.349609	5383.394043	18.123150
553.282410	764.197021	26268.423828	5245.067383	17.569128
553.627441	791.408813	26361.396484	5344.844238	17.807734
553.972473	750.591187	26526.935547	5419.676270	18.113838
554.317383	771.000000	26565.484375	5533.058594	18.461538
554.662354	743.788208	26059.798828	5394.732422	18.371553
555.007202	780.070557	25921.472656	5292.687988	17.948948
555.352051	780.070557	25728.722656	5213.320313	17.769497
555.696899	743.788208	24971.328125	5111.276367	18.026958
556.041687	766.464722	24588.097656	5138.488281	18.353165
556.386414	782.338196	24291.035156	5106.741211	18.394907
556.731079	777.802917	23905.535156	4948.005859	18.031179
557.075806	752.858826	23170.816406	4918.526367	18.581833
557.420410	743.788208	23397.582031	4936.667480	18.508509
557.764954	759.661743	23043.828125	4816.482422	18.204948
558.109497	687.097046	23075.576172	4759.791016	18.191025
558.454041	746.055847	23152.675781	4814.214844	18.156059
558.798462	761.929382	22585.763672	4775.664551	18.391521
559.142883	741.520569	22374.873047	4798.341309	18.752623
559.487244	814.085266	22340.859375	4755.255859	18.308228
559.831604	771.000000	22472.382813	4741.649902	18.296761
560.175903	698.435303	22334.054688	4732.579590	18.645845
560.520142	775.535278	21873.722656	4664.549805	18.432932
560.864380	771.000000	22368.070313	4632.802734	17.881142
561.208557	793.676453	22105.023438	4673.620605	18.206001
561.552673	773.267639	22515.466797	4891.314453	18.940342
561.896790	746.055847	22374.873047	4687.226563	18.221851
562.240906	775.535278	22311.378906	4909.456055	19.195538
562.584900	816.352905	22320.449219	4741.649902	18.253717
562.928833	718.844116	22451.972656	4848.229492	19.000418
563.272766	727.914673	22669.667969	4630.535156	17.786274
563.616760	746.055847	22340.859375	4687.226563	18.250551
563.960571	836.761780	22322.716797	4732.579590	18.131927
564.304382	752.858826	22259.222656	4639.605957	18.072544
564.648193	771.000000	22365.802734	4714.437988	18.261051
564.991943	771.000000	22300.041016	4630.535156	17.927111
565.335632	746.055847	22238.814453	4755.255859	18.653725
565.679260	748.323547	22814.796875	4777.932129	18.261227
566.022888	687.097046	23145.873047	4755.255859	18.113894
566.366455	723.379395	23560.853516	4855.032227	18.091549
566.709961	691.632324	23966.761719	5147.558594	19.144583
567.053467	736.985291	24096.017578	5174.770508	18.998154
567.396973	771.000000	24504.193359	5099.937988	18.240015
567.740417	757.394104	24737.761719	5240.532227	18.695036
568.083740	725.647034	24796.720703	5081.796875	18.097031
568.427124	780.070557	23869.251953	5120.347168	18.797878
568.770508	773.267639	23751.335938	5036.443848	18.553240
569.113708	766.464722	23241.115234	4809.679199	17.990110
569.456909	764.197021	23145.873047	5009.232422	18.966566
569.800110	764.197021	22771.710938	4834.623535	18.495623
570.143250	764.197021	22696.878906	4798.341309	18.393301
570.486328	768.732361	22567.623047	4864.103027	18.787060
570.829346	773.267639	22898.699219	4832.355957	18.345804
571.172424	757.394104	22783.048828	4873.173340	18.686298
571.515320	718.844116	23166.281250	4984.288086	19.001919
571.858276	739.252930	23184.423828	5063.655762	19.266518
572.201172	807.282349	23730.925781	5077.261719	18.626968
572.544067	730.182373	23794.419922	5097.670410	18.936192
572.886902	739.252930	24247.949219	5451.423340	20.044373
573.229675	716.576477	24499.658203	5206.517578	18.878717
573.572388	805.014709	24363.599609	5335.773438	19.231880
573.915161	766.464722	24501.925781	5215.588379	18.744627
574.257813	727.914673	24368.134766	5167.967773	18.781776
574.600403	759.661743	24009.847656	5199.714844	19.096851
574.942932	761.929382	23526.837891	5145.291016	19.254906
575.285461	755.126465	23447.470703	5034.176270	18.856800
575.627930	689.364685	23046.097656	5206.517578	20.204889
575.970398	759.661743	23188.958984	4957.076172	18.713982
576.312866	743.788208	22984.871094	4941.202637	18.872349
576.655212	741.520569	22866.953125	4927.597168	18.919752
576.997559	730.182373	22422.494141	5000.161621	19.684298
577.339783	741.520569	21699.115234	4814.214844	19.433025
577.682068	782.338196	21787.552734	4737.114746	18.827595
578.024353	691.632324	21513.167969	4514.885254	18.362013
578.366455	777.802917	20694.546875	4601.055664	19.196173
578.708618	802.747070	20125.367188	4399.235352	18.612839
579.050720	696.167664	19964.365234	4440.052734	19.430386
579.392761	734.717651	19465.482422	4245.035156	18.740917
579.734741	768.732361	19161.617188	4283.585449	19.109852
580.076721	784.605896	18649.128906	4229.161621	19.281542
580.418640	741.520569	18193.332031	4118.046875	19.347713
580.760559	786.873535	18143.443359	4213.288086	19.741312
581.102356	807.282349	17839.580078	4156.597168	19.664494
581.444153	709.773499	17728.464844	4108.976563	19.973352
581.785889	764.197021	17528.912109	4070.426514	19.721359
582.127625	795.944092	17447.275391	3941.170654	18.888739
582.469299	730.182373	17483.558594	4043.214600	19.775311
582.810974	870.776489	16905.308594	3895.817627	18.865789
583.152588	693.899963	17068.580078	3859.535156	19.332502
583.494202	702.970581	17238.652344	3936.635254	19.555677
583.835693	791.408813	16594.640625	3875.408691	19.514996
584.177185	766.464722	16925.716797	3934.367676	19.604267
584.518616	732.450012	16896.238281	3975.185303	20.061729
584.860046	725.647034	16537.949219	3818.717529	19.561165
585.201355	689.364685	16603.710938	3902.620605	20.190937
585.542603	786.873535	16417.763672	3827.788086	19.454519
585.883911	725.647034	16463.117188	3793.773438	19.495678
586.225159	746.055847	16370.143555	3932.099854	20.391872
586.566345	793.676453	16274.902344	3875.408691	19.906254
586.907471	743.788208	16481.257813	3866.338135	19.841499
587.248596	768.732361	16234.084961	3868.605713	20.043987
587.589661	777.802917	16678.542969	3886.747070	19.552197
587.930725	827.691162	16340.664063	3768.829346	18.959217
588.271667	777.802917	16347.467773	3848.197021	19.720360
588.612610	841.297058	16304.381836	3832.323486	19.343012
588.953491	866.241150	16209.140625	3900.352783	19.775347
589.294434	857.170593	16399.623047	3752.955811	18.631456
589.635254	802.747070	16603.710938	3898.085205	19.589552
589.976013	805.014709	16678.542969	3882.211670	19.385715
590.316772	727.914673	16542.484375	3986.523438	20.605106
590.657410	741.520569	17009.621094	4070.426514	20.462782
590.998108	687.097046	16510.738281	3859.535156	20.048723
591.338684	771.000000	17014.156250	3900.352783	19.265669
591.679260	775.535278	16773.785156	3823.252930	19.050320
592.019775	807.282349	16401.890625	3947.973389	20.139595
592.360291	716.576477	16088.956055	3916.226318	20.814278
592.700745	795.944092	16234.084961	3938.902832	20.358402
593.041199	805.014709	16279.438477	3952.508789	20.339975
593.381531	784.605896	16256.761719	3850.464600	19.815329
593.721863	771.000000	15868.994141	3762.026367	19.810753
594.062134	777.802917	16136.576172	3936.635254	20.566957
594.402466	736.985291	16129.773438	3780.167480	19.770182
594.742676	782.338196	16293.043945	4000.129395	20.745615
595.082764	798.211731	16517.541016	3889.014648	19.662436
595.422913	748.323547	16379.214844	3893.550049	20.121862
595.763000	759.661743	16417.763672	3902.620605	20.072414
596.103027	746.055847	16955.197266	3895.817627	19.432009
596.442993	727.914673	17479.023438	3900.352783	18.938673
596.782959	723.379395	17737.535156	4170.203125	20.258564
597.122864	712.041138	17939.355469	4174.738281	20.100040
597.462708	748.323547	18424.632813	4301.726563	20.102631
597.802490	734.717651	18508.535156	4433.250000	20.808878
598.142334	802.747070	18449.576172	4372.023438	20.226164
598.482117	764.197021	18649.128906	4349.347168	20.045647
598.821777	707.505859	18136.640625	4258.641113	20.374708
599.161438	748.323547	17395.121094	4260.908691	21.100668
599.501160	748.323547	16846.349609	4104.440918	20.848005
599.840759	746.055847	16308.916992	4004.664551	20.938364
600.180298	725.647034	15989.178711	3818.717529	20.264450
600.519775	759.661743	15313.419922	3682.658691	20.084141
600.859192	716.576477	15023.161133	3721.208740	21.001743
601.198547	750.591187	14685.282227	3576.079346	20.276648
601.537964	764.197021	14819.073242	3709.870605	20.958374
601.877258	811.817627	14927.919922	3555.670654	19.437752
602.216553	759.661743	14878.032227	3650.911621	20.478640
602.555847	777.802917	14909.779297	3687.194092	20.587292
602.895020	705.238220	15093.458984	3682.658691	20.693459
603.234253	743.788208	15517.508789	3716.673584	20.122793
603.573364	725.647034	15671.708984	3825.520508	20.740404
603.912415	752.858826	16091.223633	3911.691162	20.594322
604.251404	811.817627	16962.000000	4004.664551	19.769726
604.590515	755.126465	16986.943359	4147.526367	20.899694
604.929443	734.717651	17748.873047	4104.440918	19.805408
605.268311	764.197021	17882.664063	4260.908691	20.426546
605.607239	684.829407	18531.210938	4349.347168	20.533674
605.946045	759.661743	18363.406250	4417.376465	20.778051
606.284790	746.055847	17968.835938	4360.685059	20.987490
606.623596	698.435303	18166.121094	4258.641113	20.381668
606.962280	795.944092	17302.146484	4136.187988	20.236294
607.300903	748.323547	16751.109375	4136.187988	21.170467
607.639526	755.126465	16141.111328	3970.649902	20.899042
607.978088	761.929382	15091.191406	3805.111816	21.237537
608.316650	766.464722	15290.744141	3725.744141	20.374706
608.655151	771.000000	15016.358398	3637.305908	20.120981
608.993591	777.802917	14948.329102	3700.800049	20.627300
609.331970	786.873535	15290.744141	3641.841064	19.684175
609.670410	755.126465	15295.279297	3839.126465	21.210232
610.008728	786.873535	15460.817383	3855.000000	20.908670
610.346985	750.591187	15769.217773	3889.014648	20.896873
610.685242	786.873535	15698.919922	3970.649902	21.350365
611.023499	786.873535	15837.247070	3934.367676	20.913063
611.361633	827.691162	15744.273438	3889.014648	20.522955
611.699707	886.649963	15224.982422	3850.464600	20.670568
612.037781	809.549988	15068.514648	3870.873535	21.469465
612.375793	866.241150	14651.267578	3635.038086	20.085539
612.713745	802.747070	14034.467773	3505.782227	20.428448
613.051697	814.085266	13664.840820	3464.964600	20.628199
613.389648	816.352905	13268.002930	3435.485352	21.034420
613.727539	861.705872	12834.881836	3401.470459	21.212122
614.065369	825.423523	12893.840820	3458.161621	21.815107
614.403076	771.000000	12501.538086	3299.426514	21.554224
614.740845	780.070557	12227.152344	3208.720459	21.216324
615.078552	768.732361	12165.926758	3210.988281	21.428572
615.416260	777.802917	12109.235352	3084.000000	20.352211
615.753845	766.464722	11925.555664	3247.270508	22.231253
616.091370	814.085266	11871.131836	3124.817627	20.898279
616.428894	746.055847	11927.823242	3127.085205	21.293854
616.766357	859.438232	11687.453125	3145.226318	21.109947
617.103821	780.070557	11726.002930	3063.591064	20.861818
617.441223	752.858826	11721.467773	2993.294189	20.425882
617.778564	845.832336	11730.538086	3115.747070	20.854168
618.115845	784.605896	11628.494141	3029.576416	20.702633
618.453125	712.041138	11542.323242	3104.408691	22.089615
618.790405	716.576477	11610.352539	3111.211670	21.981682
619.127563	718.844116	11565.000000	3108.944092	22.036379
619.464722	750.591187	11474.293945	3074.929443	21.674774
619.801819	766.464722	11596.747070	3038.646973	20.979898
620.138855	789.141174	11521.914063	3129.352783	21.804354
620.475891	725.647034	11367.714844	2993.294189	21.308334
620.812866	746.055847	11195.373047	3027.308838	21.831598
621.149780	718.844116	11304.220703	3106.676514	22.557840
621.486633	802.747070	11313.291016	3077.197021	21.639698
621.823486	739.252930	11335.967773	3020.505859	21.527925
622.160278	766.464722	11152.288086	2934.335205	20.873363
622.497070	766.464722	11023.032227	3095.338135	22.706169
622.833740	700.702942	10834.817383	2884.447021	21.548447
623.170349	734.717651	10862.029297	2922.997070	21.607702
623.507080	750.591187	10986.750000	2988.758789	21.865305
623.843689	721.111755	10882.438477	2886.714600	21.312204
624.180176	748.323547	10816.676758	2866.305908	21.036036
624.516724	780.070557	10902.846680	2979.688232	21.729391
624.853210	739.252930	11038.905273	2961.547119	21.576401
625.189575	807.282349	10995.820313	2957.011719	21.099489
625.525940	841.297058	11070.652344	3038.646973	21.480824
625.862305	684.829407	11193.105469	2986.491211	21.903324
626.198547	734.717651	11301.953125	2986.491211	21.309011
626.534790	755.126465	11540.055664	3043.182373	21.215307
626.871033	750.591187	11873.399414	3161.099854	21.671764
627.207153	780.070557	12016.261719	3247.270508	21.957617
627.543213	784.605896	11957.302734	3188.311768	21.514105
627.879333	752.858826	12261.166992	3176.973389	21.064037
628.215393	716.576477	12165.926758	3326.638184	22.796593
628.551392	798.211731	12317.858398	3276.750000	21.515749
628.887329	786.873535	12020.796875	3195.114746	21.437222
629.223206	739.252930	11821.244141	3260.876465	22.754246
629.559143	834.494080	11889.273438	3190.579346	21.312820
629.894958	773.267639	11510.576172	3108.944092	21.752905
630.230713	802.747070	11252.064453	3036.379395	21.375868
630.566406	748.323547	11072.920898	2986.491211	21.678015
630.902100	723.379395	11147.752930	3038.646973	22.210138
631.237732	734.717651	10784.929688	2977.420654	22.314983
631.573303	759.661743	10986.750000	2959.279297	21.507761
631.908875	786.873535	10750.915039	2941.138184	21.620392
632.244385	793.676453	10818.944336	2836.826416	20.380003
632.579834	755.126465	10571.770508	2954.744141	22.407022
632.915283	732.450012	10494.670898	2866.305908	21.858305
633.250671	773.267639	10521.881836	2873.108887	21.539896
633.586060	775.535278	10728.238281	2893.517578	21.280474
633.921326	775.535278	10340.470703	2857.235352	21.763870
634.256592	743.788208	10342.738281	2834.558838	21.781240
634.591858	739.252930	10481.064453	2920.729492	22.392925
634.927002	768.732361	10447.049805	2898.052979	22.000938
635.262085	755.126465	10213.482422	2814.149902	21.769360
635.597168	795.944092	10460.655273	2947.941162	22.266544
635.932190	741.520569	10453.852539	2943.405762	22.671026
636.267151	752.858826	10274.708984	2920.729492	22.767324
636.602173	739.252930	10367.682617	2916.194092	22.609514
636.937073	748.323547	9959.505859	2909.391113	23.461348
637.271912	718.844116	10170.396484	2852.699951	22.576777
637.606689	748.323547	9821.179688	2805.079346	22.669331
637.941467	752.858826	9598.950195	2732.514648	22.378874
638.276245	755.126465	9592.146484	2698.500000	21.991278
638.610962	748.323547	9462.890625	2732.514648	22.768671
638.945557	705.238220	9406.200195	2718.908691	23.143078
639.280212	739.252930	9333.634766	2743.852783	23.324537
639.614807	755.126465	9292.817383	2657.682373	22.284197
639.949280	721.111755	9068.320313	2614.596924	22.684052
640.283752	780.070557	9059.250000	2659.949951	22.706106
640.618164	784.605896	8893.711914	2650.879395	23.014540
640.952515	764.197021	9009.361328	2750.655762	24.092411
641.286865	777.802917	9002.558594	2646.343994	22.718498
641.621216	814.085266	8830.217773	2696.232422	23.479492
641.955444	780.070557	8825.682617	2603.258789	22.660652
642.289612	777.802917	8644.270508	2628.202881	23.522627
642.623840	732.450012	8696.426758	2555.638184	22.892939
642.957947	782.338196	8646.538086	2612.329346	23.269897
643.291992	820.888245	8628.396484	2573.779297	22.451351
643.626099	766.464722	8635.200195	2616.864746	23.515850
643.960083	743.788208	8485.535156	2578.314697	23.696545
644.294006	802.747070	8601.185547	2544.300049	22.332073
644.627930	759.661743	8440.182617	2566.976318	23.531145
644.961792	814.085266	8587.579102	2535.229492	22.141193
645.295654	816.352905	8530.887695	2580.582275	22.868902
645.629456	746.055847	8279.179688	2569.244141	24.202286
645.963135	755.126465	8272.375977	2555.638184	23.951735
646.296753	755.126465	8251.967773	2537.497070	23.774954
646.630432	725.647034	8549.029297	2610.061768	24.086958
646.964050	748.323547	8397.096680	2607.794189	24.310705
647.297607	771.000000	8412.970703	2573.779297	23.590502
647.631104	743.788208	8567.170898	2467.199951	22.028984
647.964539	723.379395	8383.491211	2573.779297	24.156303
648.297974	748.323547	8338.137695	2621.399902	24.678818
648.631409	689.364685	8403.899414	2600.991211	24.779543
648.964722	741.520569	8517.282227	2478.538086	22.338873
649.298035	775.535278	8553.564453	2508.017578	22.274052
649.631287	777.802917	8147.655762	2542.032227	23.938459
649.964478	684.829407	8508.211914	2605.526367	24.550724
650.297668	786.873535	8283.714844	2535.229492	23.321236
650.630737	725.647034	8251.967773	2503.482422	23.621574
650.963867	752.858826	8102.302734	2630.470459	25.547668
651.296814	732.450012	8190.741211	2512.552979	23.867439
651.629822	820.888245	8444.717773	2635.005859	23.795361
651.962769	811.817627	8446.985352	2566.976318	22.987820
652.295654	755.126465	8247.432617	2487.608887	23.123487
652.628540	752.858826	8197.543945	2557.905762	24.246115
652.961304	732.450012	8136.317383	2553.370605	24.594183
653.294067	714.308838	8163.529297	2530.694092	24.383560
653.626831	746.055847	8251.967773	2535.229492	23.836857
653.959473	732.450012	7984.385254	2519.355957	24.640402
654.292114	727.914673	8070.555664	2519.355957	24.397778
654.624695	823.155884	7936.764648	2439.988281	22.728722
654.957275	771.000000	7945.834961	2487.608887	23.925413
655.289795	752.858826	7698.661621	2453.593994	24.485796
655.622192	718.844116	7750.817383	2464.932373	24.830702
655.954590	750.591187	7746.282227	2437.720459	24.116693
656.286987	759.661743	7744.014648	2439.988281	24.058443
656.619263	789.141174	7673.717773	2433.185303	23.880106
656.951538	820.888245	7651.041016	2424.114746	23.472776
657.283752	764.197021	7746.282227	2392.367676	23.319262
657.615967	805.014709	7848.326172	2324.338135	21.571154
657.948059	709.773499	7891.411621	2394.635254	23.460690
658.280273	741.520569	7909.552734	2439.988281	23.695036
658.612305	766.464722	7902.750000	2519.355957	24.563078
658.944275	718.844116	8227.023438	2616.864746	25.279373
659.276245	750.591187	8478.732422	2505.750000	22.711267
659.608276	793.676453	8510.479492	2712.105957	24.860416
659.940063	716.576477	8768.991211	2655.414551	24.077724
660.271912	748.323547	9034.305664	2793.741211	24.685278
660.603699	773.267639	9016.165039	2725.711670	23.686380
660.935486	786.873535	9032.038086	2841.361816	24.917494
661.267151	741.520569	8979.881836	2730.247070	24.139832
661.598755	734.717651	8734.976563	2698.500000	24.546486
661.930359	732.450012	8481.000000	2689.429443	25.256075
662.261902	746.055847	8270.108398	2571.511719	24.261602
662.593445	698.435303	8052.414551	2621.399902	26.148626
662.924927	791.408813	7846.058594	2471.735352	23.818708
663.256409	752.858826	7759.888184	2462.664551	24.401291
663.587769	784.605896	7610.223633	2371.958740	23.255812
663.919128	789.141174	7381.190918	2349.282227	23.667011
664.250366	782.338196	7324.500000	2347.014648	23.916813
664.581726	691.632324	7242.864746	2328.873535	24.991346
664.912903	757.394104	7124.946777	2278.985352	23.896015
665.244080	759.661743	7065.988281	2297.126465	24.379719
665.575195	678.026489	7018.367676	2274.449951	25.178825
665.906250	727.914673	6909.520508	2247.238281	24.578138
666.237244	721.111755	6836.955566	2333.408691	26.362623
666.568237	755.126465	6914.055664	2328.873535	25.552284
666.899170	782.338196	6841.491211	2272.182373	24.588326
667.230042	752.858826	6861.899902	2267.646973	24.795841
667.560913	721.111755	6859.632324	2181.476563	23.790174
667.891724	795.944092	6877.773438	2226.829346	23.527220
668.222534	718.844116	6768.926270	2376.494141	27.398802
668.553223	743.788208	7011.564453	2313.000000	25.036180
668.883850	805.014709	7009.296875	2319.802979	24.415207
669.214478	743.788208	6818.814453	2283.520508	25.345278
669.545166	791.408813	7018.367676	2285.788086	23.998541
669.875671	761.929382	6889.111816	2288.055908	24.907475
670.206116	791.408813	6877.773438	2163.335205	22.540981
670.536621	782.338196	6789.334961	2299.394043	25.254816
670.867004	782.338196	7031.973633	2322.070557	24.637157
671.197327	755.126465	6787.067383	2285.788086	25.375938
671.527588	793.676453	6612.458496	2276.717529	25.487137
671.857910	786.873535	6728.108887	2319.802979	25.801527
672.188049	709.773499	6626.064453	2269.914795	26.370260
672.518250	684.829407	6587.514648	2161.067627	25.009605
672.848389	725.647034	6406.103027	2226.829346	26.427145
673.178528	721.111755	6433.314453	2174.673584	25.446608
673.508545	764.197021	6433.314453	2233.632324	25.920002
673.838562	721.111755	6263.241211	2197.349854	26.636658
674.168518	761.929382	6329.002930	2117.982422	24.358452
674.498413	791.408813	6301.791016	2256.308838	26.584362
674.828308	727.914673	6437.850098	2217.758789	26.092136
675.158142	712.041138	6263.241211	2131.588135	25.571894
675.487854	764.197021	6258.705566	2129.320557	24.845234
675.817566	766.464722	6197.479492	2072.629395	24.050104
676.147217	771.000000	6081.829102	2154.264648	26.046114
676.476868	741.520569	6131.717773	2088.502930	24.989483
676.806396	736.985291	6204.282227	2208.688232	26.918291
677.135986	727.914673	6093.167480	2142.926514	26.373629
677.465454	805.014709	6304.058594	2106.644043	23.670103
677.794922	698.435303	6045.546875	2147.461670	27.099237
678.124329	755.126465	6000.193848	2127.052979	26.156509
678.453674	734.717651	6149.858887	2081.699951	24.874371
678.783142	764.197021	6122.646973	2093.038086	24.798981
679.112366	725.647034	6124.914551	2256.308838	28.349436
679.441589	791.408813	6310.861816	2179.208740	25.143793
679.770752	761.929382	6437.850098	2188.279297	25.129841
680.099915	736.985291	6605.655762	2176.941162	24.536322
680.428955	712.041138	6508.146973	2258.576416	26.682316
680.757996	734.717651	6603.388184	2195.082275	24.884079
681.086975	730.182373	6689.558594	2220.026367	25.000000
681.415955	816.352905	6787.067383	2272.182373	24.382835
681.744812	773.267639	6798.405762	2392.367676	26.872414
682.073730	809.549988	6628.332031	2374.226318	26.890099
682.402466	791.408813	6655.543945	2294.858887	25.638052
682.731201	759.661743	6657.811523	2254.041260	25.336411
683.059937	734.717651	6555.767578	2174.673584	24.737049
683.388611	725.647034	6510.414551	2249.505859	26.342611
683.717346	759.661743	6270.043945	2213.223389	26.378599
684.045959	775.535278	6186.141113	2181.476563	25.984913
684.374512	725.647034	6231.494141	2142.926514	25.741352
684.703003	766.464722	5979.785156	2113.447021	25.837320
685.031372	716.576477	5925.361816	2097.573486	26.512844
685.359863	736.985291	5952.573242	2074.896973	25.652172
685.688171	793.676453	5748.485352	2065.826416	25.675055
686.016541	741.520569	5868.670410	2059.023438	25.696594
686.344727	741.520569	5748.485352	2031.811768	25.769928
686.672974	757.394104	5768.894043	1990.994141	24.615387
687.001099	777.802917	5748.485352	2120.250000	27.007298
687.329285	736.985291	5673.652832	2029.544067	26.182821
687.657288	698.435303	5621.497070	1975.120605	25.932751
687.985352	700.702942	5719.005859	2009.135254	26.073206
688.313354	761.929382	5682.723633	2068.093994	26.543774
688.641418	802.747070	5660.046875	2065.826416	26.003735
688.969299	721.111755	5691.793945	2054.488281	26.824820
689.297119	752.858826	5689.526367	2068.093994	26.642166
689.624939	709.773499	5560.270508	2038.614624	27.395977
689.952698	709.773499	5480.902832	2077.164795	28.659700
690.280457	764.197021	5406.070313	2059.023438	27.894482
690.608032	750.591187	5294.955566	1956.979370	26.546907
690.935669	789.141174	5399.267578	1932.035278	24.790947
691.263245	775.535278	5231.461914	1975.120605	26.921118
691.590820	780.070557	5328.970703	2002.332275	26.869389
691.918274	723.379395	5090.867676	1913.894043	27.258566
692.245667	759.661743	4979.752930	1968.317627	28.640514
692.573059	771.000000	4952.541016	1879.879395	26.518438
692.900391	743.788208	4975.217773	2018.205811	30.117897
693.227722	764.197021	4975.217773	1866.273560	26.171246
693.555115	771.000000	4734.847168	1845.864624	27.116701
693.882324	746.055847	4728.043945	1870.808838	28.246016
694.209412	757.394104	4875.440918	1832.258789	26.101324
694.536560	752.858826	4691.761719	1829.991211	27.345999
694.863647	791.408813	4748.452637	1843.597046	26.590260
695.190613	800.479431	4705.367676	1784.638184	25.203251
695.517578	818.620605	4664.549805	1873.076416	27.417452
695.844543	759.661743	4845.961914	1734.750000	23.862373
696.171448	782.338196	4635.070313	1737.017578	24.779282
696.498291	759.661743	4698.564453	1839.061768	27.403570
696.825012	795.944092	4780.199707	1888.949951	27.433126
697.151794	820.888245	4873.173340	1857.202881	25.573587
697.478516	743.788208	4852.764648	1870.808838	27.428257
697.805115	773.267639	4932.132324	1925.232300	27.699017
698.131714	718.844116	5129.417480	1879.879395	26.323910
698.458435	759.661743	5326.702637	1904.823486	25.074478
698.784912	746.055847	5362.985352	1979.655884	26.719057
699.111389	850.367615	5508.114746	2068.093994	26.144106
699.437805	761.929382	5852.796875	2142.926514	27.126949
699.764160	723.379395	5832.388184	2045.417603	25.876608
700.090515	768.732361	6045.546875	2115.714600	25.526426
700.416748	682.561768	6002.461914	2040.882324	25.532820
700.742981	712.041138	5866.402832	2079.432373	26.528818
701.069153	793.676453	5514.917480	2170.138184	29.154657
701.395325	750.591187	5499.043945	2013.670532	26.599810
701.721375	766.464722	5235.997070	1968.317627	26.889904
702.047485	734.717651	5068.190918	1900.288208	26.896914
702.373474	805.014709	4796.073242	1988.726440	29.659090
702.699402	777.802917	4732.579590	1861.738159	27.408257
703.025330	786.873535	4496.744141	1916.161743	30.440098
703.351257	743.788208	4503.546875	1759.694092	27.020508
703.677124	746.055847	4476.335449	1757.426392	27.112459
704.002869	755.126465	4340.276367	1734.750000	27.324478
704.328613	827.691162	4292.655762	1594.155884	22.120420
704.654236	777.802917	4224.626465	1662.185303	25.657896
704.979858	680.294128	4149.793945	1675.791138	28.692812
705.305481	727.914673	4188.344238	1632.705811	26.146786
705.630981	702.970581	4111.244141	1621.367676	26.946110
705.956482	814.085266	4140.723633	1641.776489	24.880709
706.281921	771.000000	4102.173340	1668.988159	26.957113
706.607300	730.182373	3952.508789	1639.508789	28.219563
706.932678	793.676453	4027.341064	1603.226440	25.035065
707.257935	759.661743	4090.835205	1641.776489	26.480602
707.583191	780.070557	4002.396973	1621.367676	26.108377
707.908447	766.464722	3979.720459	1646.311768	27.381792
708.233704	802.747070	4045.482178	1703.002930	27.762239
708.558777	791.408813	3995.593994	1659.917603	27.105450
708.883850	820.888245	3984.255859	1662.185303	26.594982
709.208923	764.197021	4027.341064	1614.564697	26.059765
709.533813	820.888245	3972.917480	1703.002930	27.985611
709.858826	725.647034	4081.764648	1678.058838	28.378380
710.183655	752.858826	4011.467529	1682.594116	28.531664
710.508484	748.323547	4084.032227	1698.467651	28.484024
710.833252	766.464722	4172.470703	1700.735229	27.430092
711.158020	743.788208	4199.682129	1687.129395	27.296589
711.482727	768.732361	4102.173340	1777.835327	30.272112
711.807373	748.323547	4242.767578	1777.835327	29.461388
712.131897	761.929382	4308.529297	1805.046997	29.411766
712.456482	829.958801	4426.446777	1734.750000	25.157631
712.780945	777.802917	4347.079590	1727.947021	26.620075
713.105530	780.070557	4338.008789	1746.088257	27.151052
713.429932	823.155884	4224.626465	1682.594116	25.266666
713.754333	807.282349	4074.961670	1777.835327	29.701599
714.078613	768.732361	4172.470703	1732.482300	28.314455
714.402893	757.394104	4038.679443	1684.861694	28.265373
714.727112	736.985291	4022.805908	1696.199951	29.192545
715.051270	786.873535	4004.664551	1691.664673	28.118393
715.375427	798.211731	4031.876465	1709.805908	28.190744
715.699463	748.323547	3855.000000	1591.888184	27.153282
716.023499	743.788208	3843.661621	1639.508789	28.895391
716.347473	693.899963	3832.323486	1619.099976	29.479769
716.671387	721.111755	4043.214600	1600.958862	26.484644
716.995300	750.591187	3793.773438	1737.017578	32.414307
717.319153	734.717651	3762.026367	1616.832275	29.138577
717.642944	791.408813	3805.111816	1648.579346	28.442434
717.966858	741.520569	3752.955811	1616.832275	29.066263
718.290527	764.197021	3784.702881	1589.620605	27.327330
718.614197	773.267639	3684.926514	1553.338257	26.791277
718.937805	755.126465	3737.082275	1632.705811	29.429657
719.261353	759.661743	3587.417480	1485.308838	25.661589
719.584839	727.914673	3498.979248	1566.944092	30.278234
719.908264	746.055847	3476.302979	1489.844116	27.242525
720.231689	714.308838	3485.373535	1505.717651	28.559738
720.555054	766.464722	3319.835205	1489.844116	28.330372
720.878357	814.085266	3412.808838	1526.126465	27.399651
721.201660	773.267639	3285.820557	1471.702881	27.797831
721.524902	775.535278	3283.552979	1507.985229	29.204338
721.848083	730.182373	3294.891113	1433.152954	27.409372
722.171204	732.450012	3195.114746	1514.788208	31.767954
722.494263	771.000000	3220.058838	1426.349976	26.759258
722.817444	773.267639	3215.523438	1442.223511	27.390900
723.140442	771.000000	3152.029297	1433.152954	27.809526
723.463379	798.211731	3163.367676	1449.026489	27.516779
723.786255	721.111755	3108.944092	1380.997070	27.635330
724.109070	757.394104	3124.817627	1415.011719	27.777777
724.431885	811.817627	3104.408691	1523.858765	31.058357
724.754639	818.620605	3181.508789	1451.294067	26.775429
725.077332	757.394104	3036.379395	1405.941162	28.457710
725.399963	752.858826	3111.211670	1417.279419	28.173079
725.722595	755.126465	3179.241211	1439.955811	28.250698
726.045166	734.717651	3138.423584	1415.011719	28.301882
726.367676	775.535278	3079.464600	1403.673462	27.263781
726.690125	723.379395	3174.705811	1419.546997	28.399630
727.012512	757.394104	3245.002930	1471.702881	28.714674
727.334900	795.944092	3181.508789	1433.152954	26.711029
727.657349	773.267639	3217.791016	1467.167603	28.385899
727.979614	791.408813	3206.452881	1442.223511	26.948359
728.301880	777.802917	3145.226318	1453.561768	28.544065
728.624023	800.479431	3217.791016	1399.138184	24.765478
728.946167	800.479431	3265.411621	1426.349976	25.390985
729.268250	734.717651	3240.467529	1505.717651	30.769230
729.590271	786.873535	3140.691162	1471.702881	29.094410
729.912292	775.535278	3342.511719	1535.197021	29.593637
730.234192	780.070557	3263.144043	1471.702881	27.853880
730.556091	771.000000	3118.014648	1555.605835	33.429951
730.877930	736.985291	3235.932373	1424.082275	27.495461
731.199707	784.605896	3197.382324	1483.041138	28.947367
731.521484	707.505859	3256.341064	1560.141113	33.451958
731.843140	811.817627	3176.973389	1489.844116	28.667309
732.164917	739.252930	3292.623535	1569.211792	32.504440
732.486450	775.535278	3245.002930	1476.238159	28.374651
732.808105	739.252930	3301.694092	1501.182373	29.734514
733.129517	741.520569	3274.482422	1496.647095	29.811996
733.451050	736.985291	3288.088135	1473.970581	28.888891
733.772461	748.323547	3229.129395	1467.167603	28.976231
734.093750	793.676453	3226.861816	1430.885254	26.188255
734.415100	684.829407	3247.270508	1505.717651	32.035400
734.736328	727.914673	3176.973389	1519.323486	32.314819
735.057556	725.647034	3099.873535	1417.279419	29.130850
735.378723	734.717651	3127.085205	1435.420532	29.289097
735.699890	784.605896	3122.550049	1503.449951	30.746845
736.020935	839.029419	3052.252930	1417.279419	26.127048
736.341980	777.802917	3013.702881	1401.405884	27.890469
736.662903	798.211731	3018.238281	1421.814697	28.089888
736.984009	739.252930	2954.744141	1415.011719	30.501534
737.304810	718.844116	2870.841064	1349.250000	29.293993
737.625671	771.000000	2877.644043	1451.294067	32.292786
737.946472	789.141174	2927.532227	1308.432373	24.284201
738.267151	773.267639	2836.826416	1392.335327	30.000002
738.587891	777.802917	2891.250000	1380.997070	28.540775
738.908569	746.055847	2909.391113	1367.391113	28.721174
739.229126	798.211731	2882.179443	1498.914673	33.623501
739.549622	795.944092	2995.561768	1346.982300	25.051544
739.870117	764.197021	2988.758789	1369.658813	27.217127
740.190552	771.000000	2918.461670	1433.152954	30.834215
740.510986	732.450012	2918.461670	1385.532349	29.875519
740.831360	814.085266	2904.855957	1412.744141	28.633406
741.151611	748.323547	2900.320557	1378.729370	29.293991
741.471863	784.605896	2873.108887	1374.194092	28.230183
741.792175	777.802917	2827.755859	1360.588257	28.429207
742.112305	780.070557	2873.108887	1299.361694	24.810398
742.432434	800.479431	2816.417725	1374.194092	28.458941
742.752502	773.267639	2659.949951	1376.461792	31.971155
743.072510	755.126465	2766.529297	1333.376465	28.748592
743.392517	798.211731	2650.879395	1292.558838	26.682987
743.712402	734.717651	2773.332275	1297.094116	27.586208
744.032227	759.661743	2725.711670	1335.644043	29.296423
744.352051	752.858826	2671.288086	1337.911743	30.496456
744.671814	793.676453	2612.329346	1278.952881	26.683290
744.991516	750.591187	2446.791260	1369.658813	36.497322
745.311157	768.732361	2587.385254	1344.714722	31.670826
745.630798	718.844116	2582.849854	1299.361694	31.143551
745.950378	818.620605	2521.623535	1340.179443	30.625834
746.269897	736.985291	2521.623535	1263.079346	29.479033
746.589539	761.929382	2532.961670	1290.291138	29.833548
746.908936	800.479431	2544.300049	1312.967651	29.388817
747.228271	759.661743	2505.750000	1297.094116	30.779222
747.547607	750.591187	2401.438232	1242.670532	29.807688
747.866821	723.379395	2505.750000	1283.488159	31.424932
748.186096	757.394104	2385.564697	1292.558838	32.869080
748.505310	809.549988	2376.494141	1301.629395	31.403763
748.824463	732.450012	2408.241211	1224.529419	29.364004
749.143494	802.747070	2510.285156	1283.488159	28.154047
749.462524	789.141174	2405.973389	1242.670532	28.050489
749.781494	759.661743	2442.255859	1306.164673	32.479782
750.100464	802.747070	2483.073486	1342.447021	32.118755
750.419312	768.732361	2471.735352	1276.685303	29.826899
750.738159	732.450012	2328.873535	1260.811768	33.096588
751.056946	811.817627	2437.720459	1240.402954	26.359837
751.375793	784.605896	2390.099854	1219.994141	27.118649
751.694458	766.464722	2331.141113	1251.741211	31.014496
752.013123	786.873535	2385.564697	1292.558838	31.631207
752.331726	766.464722	2322.070557	1176.908813	26.384838
752.650269	741.520569	2317.535156	1258.544067	32.805756
752.968811	800.479431	2285.788086	1233.599976	29.160307
753.287170	811.817627	2303.929443	1244.938232	29.027355
753.605591	736.985291	2367.423584	1265.347046	32.406120
753.923950	771.000000	2285.788086	1224.529419	29.940123
754.242249	734.717651	2340.211670	1224.529419	30.508476
754.560486	789.141174	2337.944092	1292.558838	32.503662
754.878723	734.717651	2331.141113	1263.079346	33.096588
755.196838	829.958801	2315.267578	1201.852905	25.038166
755.514954	755.126465	2365.155762	1251.741211	30.845076
755.832947	771.000000	2337.944092	1204.120605	27.641102
756.151123	746.055847	2254.041260	1199.585327	30.075191
756.469055	709.773499	2326.605957	1256.276489	33.800842
756.786987	805.014709	2303.929443	1161.035278	23.751888
757.104797	755.126465	2290.323486	1260.811768	32.939442
757.422668	757.394104	2247.238281	1224.529419	31.354641
757.740356	768.732361	2265.379395	1244.938232	31.818182
758.058105	759.661743	2315.267578	1251.741211	31.632658
758.375732	691.632324	2385.564697	1247.205811	32.797855
758.693298	800.479431	2324.338135	1251.741211	29.613100
759.010864	759.661743	2315.267578	1174.641113	26.676382
759.328369	759.661743	2322.070557	1249.473511	31.349783
759.645813	768.732361	2385.564697	1297.094116	32.678822
759.963257	755.126465	2412.776367	1297.094116	32.694942
760.280640	814.085266	2369.691162	1201.852905	24.927113
760.597961	771.000000	2417.311768	1251.741211	29.201103
760.915283	761.929382	2381.029297	1285.755859	32.352943
761.232544	766.464722	2399.170654	1213.191162	27.361109
761.549683	752.858826	2410.508789	1206.388184	27.359779
761.866821	791.408813	2405.973389	1267.614746	29.494387
762.183838	750.591187	2408.241211	1267.614746	31.190151
762.500916	814.085266	2358.353027	1188.247070	24.229074
762.817871	730.182373	2367.423584	1292.558838	34.349030
763.134766	800.479431	2308.464600	1319.770630	34.436096
763.451599	786.873535	2487.608887	1294.826416	29.866663
763.768433	721.111755	2519.355957	1285.755859	31.399746
764.085205	750.591187	2807.346924	1346.982300	28.996689
764.401917	723.379395	2888.982422	1444.491211	33.298431
764.718628	771.000000	3036.379395	1480.773560	31.331333
765.035156	752.858826	3224.593994	1498.914673	30.183487
765.351746	764.197021	3235.932373	1501.182373	29.816515
765.668396	750.591187	3201.917725	1426.349976	27.567064
765.984863	773.267639	3079.464600	1449.026489	29.301870
766.301270	777.802917	2957.011719	1446.758789	30.697191
766.617676	716.576477	2786.938232	1360.588257	31.106243
766.933960	757.394104	2698.500000	1396.870605	32.943924
767.250244	775.535278	2610.061768	1374.194092	32.632877
767.566467	721.111755	2492.144043	1335.644043	34.699104
767.882629	739.252930	2430.917725	1303.897095	33.378017
768.198792	721.111755	2417.311768	1358.320557	37.566845
768.514832	775.535278	2337.944092	1201.852905	27.285921
768.830872	727.914673	2340.211670	1172.373535	27.566811
769.146790	782.338196	2199.617676	1235.867676	32.000000
769.462769	845.832336	2267.646973	1167.838257	22.647532
769.778564	718.844116	2120.250000	1138.358765	29.935270
770.094421	798.211731	2161.067627	1174.641113	27.620628
770.410339	773.267639	2224.561768	1167.838257	27.187500
770.726013	795.944092	2131.588135	1204.120605	30.560276
771.041687	789.141174	2099.841064	1181.444092	29.930796
771.357300	736.985291	2167.870605	1192.782349	31.854200
771.672913	725.647034	2147.461670	1199.585327	33.333336
771.988464	736.985291	2145.194092	1138.358765	28.502413
772.303894	741.520569	2061.291260	1158.767578	31.615112
772.619324	702.970581	2022.741089	1181.444092	36.254295
772.934631	716.576477	2093.038086	1111.147095	28.665573
773.250000	736.985291	2079.432373	1174.641113	32.601349
773.565247	761.929382	1981.923462	1204.120605	36.245358
773.880493	691.632324	2034.079346	1115.682373	31.587843
774.195618	764.197021	2038.614624	1133.823486	29.003559
774.510742	771.000000	1950.176392	1131.555908	30.576927
774.825867	766.464722	2000.064697	1122.485229	28.860289
775.140991	811.817627	2000.064697	1136.091187	27.290079
775.455994	791.408813	1963.782349	1131.555908	29.013542
775.770874	793.676453	1972.852905	1140.626465	29.423077
776.085693	786.873535	1993.261719	1093.005859	25.375938
776.400574	841.297058	1972.852905	1097.541138	22.645287
776.715332	775.535278	1888.949951	1127.020630	31.568233
777.030029	802.747070	1975.120605	1122.485229	27.272720
777.344727	823.155884	1938.838257	1127.020630	27.235775
777.659363	773.267639	1873.076416	1136.091187	32.989693
777.973877	791.408813	1913.894043	1113.414673	28.686869
778.288391	725.647034	1945.641113	1052.188232	26.765800
778.602905	764.197021	1879.879395	1127.020630	32.520332
778.917236	736.985291	1868.541138	1140.626465	35.671341
779.231689	757.394104	1884.414673	1127.020630	32.796787
779.546021	773.267639	1879.879395	1147.429443	33.811478
779.860352	768.732361	1904.823486	1147.429443	33.333340
780.174561	732.450012	1945.641113	1158.767578	35.140182
780.488770	707.505859	1882.146973	1140.626465	36.872589
780.802856	723.379395	1938.838257	1170.105835	36.753727
781.116882	771.000000	1893.485229	1161.035278	34.747475
781.430969	746.055847	1950.176392	1140.626465	32.768364
781.744873	768.732361	1879.879395	1136.091187	33.061226
782.058838	780.070557	1925.232300	1117.949951	29.504950
782.372681	832.226440	1859.470581	1165.570557	32.450329
782.686462	786.873535	1875.344116	1086.202881	27.499994
783.000244	736.985291	1843.597046	1097.541138	32.581963
783.313904	802.747070	1798.244141	1072.597046	27.107059
783.627625	793.676453	1791.441162	1165.570557	37.272724
783.941162	771.000000	1771.032349	1045.385254	27.437637
784.254700	725.647034	1771.032349	1095.273560	35.357925
784.568359	757.394104	1886.682373	1174.641113	36.947784
784.881836	805.014709	1789.173462	1061.258789	26.036865
785.195190	746.055847	1818.652954	1068.061768	30.021143
785.508606	764.197021	1723.411743	984.158813	22.931444
785.821899	757.394104	1761.961792	1138.358765	37.923244
786.135132	743.788208	1773.299927	1058.991211	30.616747
786.448303	678.026489	1727.947021	1061.258789	36.501076
786.761475	791.408813	1761.961792	1036.314697	25.233644
787.074585	752.858826	1791.441162	1058.991211	29.475988
787.387634	777.802917	1737.017578	1034.046997	26.713945
787.700623	832.226440	1757.426392	1020.441162	20.343140
788.013611	725.647034	1748.355835	1068.061768	33.481155
788.326477	746.055847	1696.199951	1095.273560	36.754185
788.639282	689.364685	1771.032349	1074.864746	35.639416
788.952148	766.464722	1791.441162	1151.964722	37.610622
789.265015	684.829407	1886.682373	1104.344116	34.905659
789.577637	750.591187	1929.767578	1174.641113	35.961536
789.890381	782.338196	1936.570557	1120.217651	29.273087
790.202881	773.267639	1884.414673	1122.485229	31.428568
790.515442	759.661743	1922.964722	1188.247070	36.842106
790.827942	741.520569	1823.188232	1077.132324	31.027250
791.140381	807.282349	1809.582275	1179.176514	37.104080
791.452759	739.252930	1884.414673	1106.611694	32.079205
791.765137	698.435303	1689.397095	1088.470581	39.359264
792.077393	748.323547	1759.694092	1038.582397	28.699556
792.389587	727.914673	1700.735229	1054.455811	33.566429
792.701782	725.647034	1634.973511	1106.611694	41.895256
793.013977	743.788208	1625.902954	1111.147095	41.645248
793.325989	798.211731	1630.438232	1006.835266	25.068119
793.638062	741.520569	1644.044067	1056.723511	34.924625
793.950134	723.379395	1632.705811	1111.147095	42.643398
794.262085	771.000000	1630.438232	1077.132324	35.620049
794.573975	807.282349	1698.467651	1056.723511	27.989820
794.885803	723.379395	1657.650024	995.497070	29.126215
795.197510	716.576477	1573.747070	1045.385254	38.359783
795.509277	723.379395	1639.508789	1022.708801	32.673267
795.820984	725.647034	1614.564697	1054.455811	36.989792
796.132568	764.197021	1573.747070	984.158813	27.170870
796.444092	750.591187	1721.144043	979.623535	23.598133
796.755615	775.535278	1682.594116	1063.526489	31.750004
797.067139	771.000000	1802.779419	1045.385254	26.593403
797.378540	727.914673	1693.932373	1097.541138	38.262909
797.689880	736.985291	1818.652954	1090.738281	32.704403
798.001160	687.097046	1748.355835	1102.076416	39.102562
798.312439	727.914673	1816.385254	1088.470581	33.125004
798.623779	743.788208	1841.329346	1117.949951	34.090908
798.934937	782.338196	1741.552979	1029.511719	25.768318
799.246094	741.520569	1709.805908	1115.682373	38.641689
799.557129	709.773499	1700.735229	1106.611694	40.045765
799.868103	761.929382	1639.508789	988.694092	25.839794
800.179016	780.070557	1712.073486	970.552917	20.437958
800.489990	807.282349	1641.776489	1034.046997	27.173906
800.800781	752.858826	1610.029419	972.820557	25.661371
801.111633	755.126465	1630.438232	1002.299988	28.238340
801.422363	768.732361	1614.564697	1045.385254	32.707771
801.733093	816.352905	1530.661743	1077.132324	36.507938
802.043701	773.267639	1598.691162	1040.849976	32.417580
802.354309	766.464722	1580.549927	1081.667603	38.718658
802.664795	771.000000	1555.605835	1049.920532	35.549129
802.975281	752.858826	1621.367676	1024.976440	31.331589
803.285889	741.520569	1521.591187	981.891174	30.813955
803.596252	741.520569	1510.252930	1011.370544	35.103241
803.906555	771.000000	1553.338257	995.497070	28.695652
804.216858	752.858826	1471.702881	993.229370	33.438484
804.527100	698.435303	1514.788208	1068.061768	45.277779
804.837280	730.182373	1503.449951	1024.976440	38.123165
805.147400	709.773499	1537.464722	995.497070	34.520550
805.457520	836.761780	1569.211792	972.820557	18.575844
805.767517	746.055847	1514.788208	1038.582397	38.053108
806.077454	752.858826	1489.844116	1079.400024	44.307697
806.387390	741.520569	1542.000000	1036.314697	36.827194
806.697266	755.126465	1603.226440	1093.005859	39.839573
807.007080	775.535278	1591.888184	1038.582397	32.222233
807.316895	727.914673	1535.197021	1000.032349	33.707870
807.626526	716.576477	1510.252930	1058.991211	43.142860
807.936340	664.420593	1569.211792	986.426453	35.588970
808.245972	716.576477	1494.379395	972.820557	32.944603
808.555542	732.450012	1514.788208	1004.567627	34.782608
808.865051	736.985291	1546.535278	1029.511719	36.134449
809.174438	757.394104	1521.591187	990.961731	30.563795
809.483826	718.844116	1526.126465	1054.455811	41.573025
809.793213	748.323547	1492.111694	968.285278	29.573170
810.102478	809.549988	1501.182373	1040.849976	33.442619
810.411743	739.252930	1410.476440	979.623535	35.810814
810.720947	789.141174	1492.111694	950.144104	22.903227
811.030090	707.505859	1437.688232	975.088196	36.645958
811.339172	759.661743	1449.026489	988.694092	33.223682
811.648193	723.379395	1446.758789	938.805847	29.780563
811.957214	768.732361	1464.900024	966.017639	28.338758
812.266174	743.788208	1403.673462	997.764709	38.487980
812.575134	820.888245	1403.673462	979.623535	27.237356
812.883972	750.591187	1374.194092	882.114685	21.090906
813.192688	709.773499	1328.841187	941.073486	37.362633
813.501465	786.873535	1415.011719	927.467651	22.382673
813.810120	829.958801	1378.729370	1013.638245	33.471081
814.118774	771.000000	1424.082275	932.002930	24.652779
814.427368	750.591187	1396.870605	943.341187	29.824560
814.735840	727.914673	1367.391113	977.355896	39.007103
815.044312	793.676453	1458.097046	913.861755	18.088737
815.352722	721.111755	1371.926392	977.355896	39.372829
815.661072	757.394104	1362.855835	941.073486	30.337076
815.969421	671.223511	1408.208862	993.229370	43.692303
816.277649	773.267639	1403.673462	968.285278	30.935253
816.585815	664.420593	1455.829346	995.497070	41.833817
816.893982	716.576477	1399.138184	902.523499	27.242521
817.202209	807.282349	1362.855835	1018.173523	37.959187
817.510254	768.732361	1356.052979	922.932312	26.254816
817.818237	757.394104	1433.152954	977.355896	32.550339
818.126160	709.773499	1362.855835	956.947021	37.847221
818.434082	800.479431	1380.997070	972.820557	29.687492
818.741943	784.605896	1288.023560	986.426453	40.090084
819.049683	725.647034	1412.744141	936.538208	30.693068
819.357422	700.702942	1401.405884	1000.032349	42.718445
819.665100	748.323547	1437.688232	963.750000	31.249998
819.972717	705.238220	1444.491211	925.200012	29.754602
820.280273	759.661743	1433.152954	961.482361	29.966333
820.587830	750.591187	1510.252930	984.158813	30.746267
820.895264	782.338196	1587.352905	1000.032349	27.042257
821.202637	682.561768	1596.423462	1049.920532	40.198509
821.510071	727.914673	1727.947021	1111.147095	38.322002
821.817444	739.252930	1775.567627	1102.076416	35.010937
822.124756	755.126465	1748.355835	1117.949951	36.529678
822.431946	736.985291	2179.208740	1224.529419	33.805035
822.739075	748.323547	2591.920654	1331.108765	31.611311
823.046204	820.888245	3523.923584	1607.761719	29.110735
823.353210	732.450012	4308.529297	1970.585327	34.622700
823.660217	727.914673	4927.597168	2099.841064	32.667381
823.967163	734.717651	5458.226563	2201.885254	31.060968
824.274109	727.914673	5542.129395	2412.776367	34.997643
824.580872	761.929382	5533.058594	2383.297119	33.982891
824.887695	807.282349	4900.385254	2206.420654	34.182827
825.194397	780.070557	4310.796875	1970.585327	33.718693
825.501099	793.676453	3666.785156	1805.046997	35.201263
825.807678	759.661743	3158.832275	1709.805908	39.603031
826.114441	775.535278	2893.517578	1498.914673	34.154175
826.420959	764.197021	2610.061768	1387.799927	33.783783
826.727356	773.267639	2276.717529	1306.164673	35.444946
827.033813	777.802917	2224.561768	1328.841187	38.087776
827.340149	786.873535	2249.505859	1201.852905	28.372091
827.646484	798.211731	2254.041260	1285.755859	33.489094
827.952698	748.323547	2401.438232	1335.644043	35.528114
828.258911	768.732361	2569.244141	1342.447021	31.863977
828.565063	746.055847	2684.894043	1428.617676	35.204685
828.871155	743.788208	2800.544189	1462.632324	34.950386
829.177246	791.408813	2761.994141	1439.955811	32.911388
829.483215	775.535278	2684.894043	1399.138184	32.660332
829.789185	761.929382	2578.314697	1349.250000	32.334583
830.095032	782.338196	2213.223389	1260.811768	33.438988
830.400879	709.773499	2000.064697	1219.994141	39.543060
830.706787	768.732361	1857.202881	1149.697021	35.000000
831.012451	739.252930	1786.905884	1093.005859	33.766232
831.318176	786.873535	1553.338257	1061.258789	35.798809
831.623718	743.788208	1505.717651	1036.314697	38.392857
831.929321	764.197021	1546.535278	954.679382	24.347826
832.234802	746.055847	1446.758789	988.694092	34.627834
832.540283	752.858826	1328.841187	884.382324	22.834641
832.845764	800.479431	1324.305908	988.694092	35.930725
833.151062	768.732361	1442.223511	1063.526489	43.771046
833.456360	771.000000	1401.405884	970.552917	31.654673
833.761597	759.661743	1360.588257	966.017639	34.339622
834.066833	732.450012	1535.197021	968.285278	29.378529
834.371948	732.450012	1564.676392	1015.905884	34.059948
834.677002	730.182373	1825.455811	1106.611694	34.368526
834.982056	752.858826	1913.894043	1136.091187	33.007816
835.287109	791.408813	1947.908813	1170.105835	32.745094
835.592102	675.758789	2022.741089	1174.641113	37.037037
835.896973	691.632324	2090.770508	1154.232300	33.063210
836.201782	716.576477	1972.852905	1099.808838	30.505419
836.506531	798.211731	1916.161743	1145.161743	31.034485
836.811218	739.252930	1739.285278	1106.611694	36.734688
837.115906	759.661743	1600.958862	1052.188232	34.770889
837.420532	789.141174	1544.267578	1065.794067	36.636635
837.725098	782.338196	1505.717651	993.229370	29.153603
838.029541	805.014709	1408.208862	1000.032349	32.330822
838.333984	721.111755	1328.841187	913.861755	31.716417
838.638428	773.267639	1283.488159	902.523499	25.333332
838.942749	721.111755	1254.008789	986.426453	49.787235
839.247009	746.055847	1249.473511	913.861755	33.333336
839.551270	761.929382	1185.979370	870.776489	25.668461
839.855591	741.520569	1129.288208	895.720581	39.766087
840.159729	775.535278	1210.923462	975.088196	45.833332
840.463745	766.464722	1131.555908	925.200012	43.478260
840.767761	693.899963	1226.796997	936.538208	45.531918
841.071777	755.126465	1165.570557	920.664673	40.331486
841.375671	709.773499	1274.417603	979.623535	47.791172
841.679504	759.661743	1267.614746	961.482361	39.732143
841.983276	764.197021	1278.952881	888.917664	24.229086
842.287109	805.014709	1299.361694	929.735291	25.229361
842.590759	764.197021	1240.402954	959.214722	40.952389
842.894409	734.717651	1158.767578	895.720581	37.967918
843.197998	789.141174	1244.938232	857.170593	14.925375
843.501526	723.379395	1136.091187	882.114685	38.461536
843.804993	689.364685	1154.232300	854.902954	35.609764
844.108459	705.238220	1102.076416	891.185303	46.857155
844.411926	752.858826	1108.879395	782.338196	8.280244
844.715210	693.899963	1122.485229	911.594116	50.793663
845.018494	750.591187	1124.752930	814.085266	16.969688
845.321716	798.211731	1065.794067	852.635254	20.338982
845.624878	709.773499	1049.920532	852.635254	42.000000
845.927979	805.014709	1093.005859	927.467651	42.519688
846.231018	732.450012	1052.188232	848.099976	36.170204
846.534058	816.352905	1047.652954	909.326477	40.196087
846.836975	712.041138	1117.949951	836.761780	30.726271
847.139893	782.338196	1070.329346	823.155884	14.173244
847.442749	739.252930	1058.991211	834.494080	29.787222
847.745483	712.041138	1006.835266	857.170593	49.230782
848.048218	718.844116	1036.314697	825.423523	33.571426
848.350891	816.352905	1000.032349	845.832336	16.049391
848.653503	768.732361	966.017639	798.211731	14.942509
848.956177	721.111755	1018.173523	805.014709	28.244278
849.258667	768.732361	1068.061768	829.958801	20.454536
849.561157	823.155884	988.694092	886.649963	38.356148
849.863525	786.873535	1015.905884	795.944092	3.960382
850.165955	748.323547	1006.835266	857.170593	42.105267
850.468201	768.732361	1015.905884	829.958801	24.770630
850.770447	784.605896	979.623535	793.676453	4.651147
851.072632	757.394104	995.497070	784.605896	11.428581
851.374756	757.394104	981.891174	893.452942	60.606064
851.676880	748.323547	1000.032349	793.676453	18.018005
851.978821	705.238220	1013.638245	836.761780	42.647064
852.280823	795.944092	954.679382	814.085266	11.428571
852.582764	771.000000	1011.370544	870.776489	41.509449
852.884644	761.929382	963.750000	877.579407	57.303375
853.186401	771.000000	941.073486	818.620605	28.000017
853.488281	764.197021	995.497070	784.605896	8.823549
853.789978	771.000000	1009.102905	786.873535	6.666670
854.091675	723.379395	909.326477	836.761780	60.975620
854.393188	712.041138	943.341187	886.649963	75.490181
854.694763	746.055847	984.158813	836.761780	38.095257
854.996277	702.970581	1015.905884	895.720581	61.594200
855.297668	829.958801	963.750000	795.944092	-25.423727
855.599060	780.070557	902.523499	784.605896	3.703741
855.900330	800.479431	970.552917	825.423523	14.666656
856.201599	734.717651	972.820557	789.141174	22.857143
856.502808	791.408813	990.961731	766.464722	-12.499989
856.804016	716.576477	909.326477	850.367615	69.411743
857.105103	746.055847	945.608826	786.873535	20.454561
857.406128	795.944092	927.467651	802.747070	5.172441
857.707153	752.858826	970.552917	825.423523	33.333332
858.008179	743.788208	950.144104	811.817627	32.967033
858.309082	795.944092	986.426453	809.549988	7.142864
858.609863	766.464722	920.664673	843.564697	50.000000
858.910645	816.352905	945.608826	780.070557	-28.070164
859.211426	784.605896	1038.582397	904.791138	47.321404
859.512024	752.858826	961.482361	843.564697	43.478256
859.812683	730.182373	947.876465	789.141174	27.083326
860.113220	789.141174	954.679382	802.747070	8.219188
860.413696	775.535278	934.270569	820.888245	28.571445
860.714172	786.873535	909.326477	834.494080	38.888851
861.014587	702.970581	943.341187	818.620605	48.113213
861.314880	752.858826	954.679382	823.155884	34.831467
861.615173	795.944092	968.285278	789.141174	-3.947355
861.915405	759.661743	909.326477	775.535278	10.606063
862.215576	832.226440	870.776489	791.408813	-105.882164
862.515747	757.394104	977.355896	786.873535	13.402069
862.815918	759.661743	936.538208	820.888245	34.615402
863.115845	736.985291	891.185303	805.014709	44.117649
863.415771	818.620605	977.355896	802.747070	-10.000004
863.715698	802.747070	895.720581	818.620605	17.073181
864.015564	816.352905	913.861755	791.408813	-25.581362
864.315369	761.929382	879.847046	807.282349	38.461555
864.615112	746.055847	943.341187	877.579407	66.666664
864.914734	805.014709	916.129395	805.014709	0.000000
865.214355	723.379395	911.594116	809.549988	45.783131
865.513977	716.576477	913.861755	750.591187	17.241383
865.813477	780.070557	941.073486	827.691162	29.577478
866.112915	789.141174	1015.905884	859.438232	31.000000
866.412292	736.985291	943.341187	771.000000	16.483517
866.711670	750.591187	1040.849976	820.888245	24.218752
867.011108	786.873535	988.694092	782.338196	-2.247214
867.310303	732.450012	938.805847	782.338196	24.175804
867.609497	725.647034	916.129395	777.802917	27.380953
867.908691	757.394104	916.129395	786.873535	18.571442
868.207764	782.338196	925.200012	823.155884	28.571447
868.506775	795.944092	888.917664	766.464722	-31.707258
868.805725	809.549988	904.791138	807.282349	-2.380945
869.104614	771.000000	966.017639	825.423523	27.906975
869.403503	771.000000	954.679382	839.029419	37.037048
869.702271	725.647034	900.255859	832.226440	61.038956
870.001038	800.479431	888.917664	816.352905	17.948656
870.299683	739.252930	913.861755	820.888245	46.753258
870.598328	743.788208	911.594116	759.661743	9.459461
870.896912	739.252930	932.002930	816.352905	39.999989
871.195496	723.379395	936.538208	809.549988	40.425537
871.494019	734.717651	975.088196	839.029419	43.396236
871.792419	746.055847	981.891174	850.367615	44.230762
872.090820	705.238220	952.411743	868.508789	66.055038
872.389099	721.111755	932.002930	868.508789	69.892464
872.687317	777.802917	897.988220	802.747070	20.754745
872.985535	775.535278	952.411743	843.564697	38.461544
873.283691	755.126465	902.523499	736.985291	-12.307693
873.581726	718.844116	909.326477	800.479431	42.857151
873.879761	759.661743	954.679382	818.620605	30.232580
874.177795	741.520569	1002.299988	825.423523	32.173916
874.475708	752.858826	950.144104	852.635254	50.574696
874.773560	786.873535	943.341187	820.888245	21.739132
875.071350	771.000000	959.214722	845.832336	39.759026
875.369080	793.676453	936.538208	764.197021	-20.634935
875.666748	723.379395	929.735291	811.817627	42.857140
875.964539	764.197021	918.397034	807.282349	27.941196
876.262085	748.323547	918.397034	868.508789	70.666656
876.559631	782.338196	938.805847	805.014709	14.492781
876.857117	771.000000	936.538208	823.155884	31.506855
877.154541	675.758789	1011.370544	795.944092	35.810814
877.451904	712.041138	959.214722	863.973511	61.467884
877.749207	736.985291	902.523499	836.761780	60.273994
878.046448	782.338196	911.594116	795.944092	10.526323
878.343628	700.702942	920.664673	818.620605	53.608265
878.640747	725.647034	943.341187	825.423523	45.833336
878.937866	748.323547	984.158813	793.676453	19.230757
879.234924	730.182373	925.200012	811.817627	41.860447
879.531860	730.182373	986.426453	809.549988	30.973444
879.828735	668.955872	873.044128	786.873535	57.777779
880.125610	793.676453	877.579407	782.338196	-13.513537
880.422546	759.661743	1029.511719	859.438232	36.974800
880.719299	759.661743	918.397034	793.676453	21.428574
881.015991	727.914673	1018.173523	811.817627	28.906252
881.312622	759.661743	1054.455811	848.099976	30.000004
881.609253	716.576477	1077.132324	900.255859	50.943394
881.905701	761.929382	1206.388184	927.467651	37.244907
882.202148	771.000000	1346.982300	970.552917	34.645668
882.498596	723.379395	1539.732300	1013.638245	35.555561
882.794983	771.000000	1680.326416	1058.991211	31.670828
883.091309	718.844116	1816.385254	1138.358765	38.223137
883.387512	752.858826	2029.544067	1172.373535	32.859680
883.683655	682.561768	2081.699951	1213.191162	37.925446
883.979797	752.858826	2158.800049	1256.276489	35.806454
884.275940	712.041138	2018.205811	1183.711792	36.111118
884.571960	723.379395	1922.964722	1265.347046	45.179585
884.868042	739.252930	1784.638184	1151.964722	39.479397
885.163940	741.520569	1659.917603	1154.232300	44.938271
885.459778	718.844116	1578.282349	1124.752930	47.229549
885.755554	766.464722	1369.658813	1011.370544	40.601494
886.051331	757.394104	1283.488159	936.538208	34.051727
886.346985	757.394104	1226.796997	959.214722	42.995178
886.642639	755.126465	1201.852905	877.579407	27.411169
886.938232	757.394104	1079.400024	839.029419	25.352116
887.233704	702.970581	1093.005859	877.579407	44.767445
887.529236	825.423523	984.158813	789.141174	-22.857141
887.824646	786.873535	1000.032349	793.676453	3.191478
888.119934	825.423523	1045.385254	913.861755	40.206192
888.415222	759.661743	1047.652954	818.620605	20.472452
888.710510	730.182373	990.961731	861.705872	50.434780
889.005676	768.732361	995.497070	814.085266	19.999985
889.300903	730.182373	925.200012	834.494080	53.488346
889.596008	793.676453	1018.173523	798.211731	2.020195
889.890991	784.605896	954.679382	775.535278	-5.333352
>>>>>End Processed Spectral Data<<<<<
